#  Calculations performed with AESOPUS 2.1
#  Tables of Rosseland mean opacities
#  Reference papers: Marigo & Aringer 2009 (A&A, 508, 1539); Marigo et al. 2022 (ApJ 940, 129), 2023 with solid grains
#
#  Definitions:
#  The base-10 logarithm of the Rosseland mean opacity [cm**2/g] as a function
#  of log10(T) for columns of constant log10(R), where:
#  R=density[g/cm**3]/T6**3, T6=1.e-6*T[K]
#
#  Ranges of state parameters
#
#  log10(T) range: nt=  51  values from  4.500  to  2.000
#  log10(T) = [2.000,3.700] in steps of  0.050
#  log10(T) = [3.700,4.500] in steps of  0.050
#
#  log10(R) range: nre=141  values from -8.000  to  6.000
#                           in steps of  0.100
#
#
#  Composition parameters:
#
#       X     = hydrogen mass fraction
#               mh =  1 values from 0.700 to 0.700 in steps of 0.100
#       Zref  = 2.000000E-02  reference metallicity
#       Z     = actual metallicity
#
#       Reference solar mixture: Magg Bergemann Serenelli et al. 2022 A&A 661 A140 ---- Zsun =  0.01654  (C/O)sun =  0.61660
#
#     Zi   element   (ni/nz)sun         (Xi/Z)sun         <Ai>
#
#      3     Li     8.100875E-09     3.280474E-09     6.941739E+00
#      4     Be     1.899031E-08     9.983858E-09     9.012183E+00
#      5     B      2.682452E-07     1.691934E-07     1.081222E+01
#      6     C      2.744934E-01     1.923324E-01     1.201114E+01
#      7     N      7.219913E-02     5.899377E-02     1.400676E+01
#      8     O      4.451762E-01     4.155004E-01     1.599938E+01
#      9     F      1.899031E-05     2.104677E-05     1.899841E+01
#     10     Ne     1.067657E-01     1.256327E-01     2.017132E+01
#     11     Na     1.474456E-03     1.977439E-03     2.298977E+01
#     12     Mg     2.682452E-02     3.804042E-02     2.430955E+01
#     13     Al     2.034379E-03     3.202102E-03     2.698154E+01
#     14     Si     2.941250E-02     4.818948E-02     2.808561E+01
#     15     P      1.943265E-04     3.511255E-04     3.097377E+01
#     16     S      1.092526E-02     2.043583E-02     3.206445E+01
#     17     Cl     1.344411E-04     2.780846E-04     3.545753E+01
#     18     Ar     2.390738E-03     5.571341E-03     3.994766E+01
#     19     K      1.043835E-04     2.381001E-04     3.910130E+01
#     20     Ca     1.772687E-03     4.144371E-03     4.007654E+01
#     21     Sc     8.878344E-07     2.328387E-06     4.495592E+01
#     22     Ti     6.584639E-05     1.839131E-04     4.787893E+01
#     23     V      5.868565E-06     1.743977E-05     5.094157E+01
#     24     Cr     4.154626E-04     1.260236E-03     5.199762E+01
#     25     Mn     2.503410E-04     8.023089E-04     5.493805E+01
#     26     Fe     2.390738E-02     7.788802E-02     5.584731E+01
#     27     Co     6.738015E-05     2.316479E-04     5.893319E+01
#     28     Ni     1.314111E-03     4.500340E-03     5.870525E+01
#     29     Cu     1.226399E-05     4.546373E-05     6.354723E+01
#     30     Zn     3.009761E-05     1.148045E-04     6.538687E+01
#     31     Ga     5.734980E-07     2.332430E-06     6.971723E+01
#     32     Ge     1.943265E-06     8.233550E-06     7.263045E+01
#     33     As     1.772687E-07     7.747747E-07     7.492160E+01
#     34     Se     1.943265E-06     8.954514E-06     7.899028E+01
#     35     Br     3.225017E-07     1.503317E-06     7.990652E+01
#     36     Kr     1.543235E-06     7.544269E-06     8.380092E+01
#     37     Rb     3.009761E-07     1.500625E-06     8.546807E+01
#     38     Sr     5.604436E-07     2.864535E-06     8.761646E+01
#     39     Y      1.314111E-07     6.815517E-07     8.890587E+01
#     40     Zr     3.009761E-07     1.601682E-06     9.122375E+01
#     41     Nb     1.988529E-08     1.077740E-07     9.290638E+01
#     42     Mo     6.288281E-08     3.517547E-07     9.588960E+01
#     43     Tc     0.000000E+00     0.000000E+00     9.690639E+01
#     44     Ru     5.230364E-08     3.083729E-07     1.010666E+02
#     45     Rh     9.963959E-09     5.981457E-08     1.029055E+02
#     46     Pd     3.702814E-08     2.298981E-07     1.064307E+02
#     47     Ag     6.584639E-09     4.143460E-08     1.078685E+02
#     48     Cd     4.451762E-08     2.919592E-07     1.124227E+02
#     49     In     3.455667E-08     2.314618E-07     1.148183E+02
#     50     Sn     7.560177E-08     5.236521E-07     1.187338E+02
#     51     Sb     7.560177E-09     5.369940E-08     1.217590E+02
#     52     Te     1.314111E-07     9.783941E-07     1.276278E+02
#     53     I      2.445862E-08     1.810695E-07     1.269045E+02
#     54     Xe     1.117975E-07     8.562620E-07     1.312920E+02
#     55     Cs     1.020075E-08     7.908810E-08     1.329054E+02
#     56     Ba     1.407771E-07     1.127784E-06     1.373275E+02
#     57     La     1.117975E-08     9.059159E-08     1.389055E+02
#     58     Ce     2.873637E-08     2.348831E-07     1.401146E+02
#     59     Pr     3.877323E-09     3.187154E-08     1.409077E+02
#     60     Nd     2.390738E-08     2.011673E-07     1.442411E+02
#     61     Pm     0.000000E+00     0.000000E+00     1.449128E+02
#     62     Sm     7.736276E-09     6.785951E-08     1.503635E+02
#     63     Eu     2.503410E-09     2.219268E-08     1.519642E+02
#     64     Gd     9.963959E-09     9.140606E-08     1.572558E+02
#     65     Tb     6.005262E-10     5.567519E-09     1.589254E+02
#     66     Dy     1.043835E-08     9.895142E-08     1.625001E+02
#     67     Ho     1.375726E-09     1.323637E-08     1.649304E+02
#     68     Er     6.434754E-09     6.278618E-08     1.672614E+02
#     69     Tm     7.560177E-10     7.450511E-09     1.689342E+02
#     70     Yb     9.091425E-09     9.177127E-08     1.730367E+02
#     71     Lu     8.682243E-10     8.861840E-09     1.749667E+02
#     72     Hf     5.604436E-09     5.835579E-08     1.784907E+02
#     73     Ta     5.604436E-10     5.915915E-09     1.809479E+02
#     74     W      9.741637E-09     1.044749E-07     1.838415E+02
#     75     Re     1.440562E-09     1.564873E-08     1.862134E+02
#     76     Os     1.732335E-08     1.922491E-07     1.902374E+02
#     77     Ir     1.692902E-08     1.898271E-07     1.922161E+02
#     78     Pt     4.770149E-08     5.428533E-07     1.950806E+02
#     79     Au     7.736276E-09     8.889163E-08     1.969666E+02
#     80     Hg     1.020075E-08     1.193693E-07     2.005969E+02
#     81     Tl     6.005262E-09     7.160031E-08     2.043838E+02
#     82     Pb     6.738015E-08     8.145118E-07     2.072187E+02
#     83     Bi     3.877323E-09     4.726873E-08     2.089804E+02
#     84     Po     0.000000E+00     0.000000E+00     2.089824E+02
#     85     At     0.000000E+00     0.000000E+00     2.099870E+02
#     86     Rn     0.000000E+00     0.000000E+00     2.220176E+02
#     87     Fr     0.000000E+00     0.000000E+00     2.230198E+02
#     88     Ra     0.000000E+00     0.000000E+00     2.260254E+02
#     89     Ac     0.000000E+00     0.000000E+00     2.270278E+02
#     90     Th     9.091425E-10     1.230630E-08     2.320381E+02
#     91     Pa     0.000000E+00     0.000000E+00     2.310359E+02
#     92     U      2.390738E-10     3.319695E-09     2.380289E+02
#     93     Np     0.000000E+00     0.000000E+00     2.370482E+02
#     94     Pu     0.000000E+00     0.000000E+00     2.440642E+02
#     95     Am     0.000000E+00     0.000000E+00     2.430614E+02
#     96     Cm     0.000000E+00     0.000000E+00     2.470704E+02
#     97     Bk     0.000000E+00     0.000000E+00     2.470703E+02
#     98     Cf     0.000000E+00     0.000000E+00     2.510796E+02
#     99     Es     0.000000E+00     0.000000E+00     2.540881E+02
#
#
#  Abundance ratio variations of metals with respect to 
#  scaled-solar values: [X_i/Fe] (in dex)
#  Fe-group elements: V, Cr, Mn, Fe, Co, Ni, Cu, Zn
#  Reference metallicity is preserved:  Zref = Z
#  No change in any metal abundance
#
#       1    H         -----      34   [Se/Fe]=   0.000      67   [Ho/Fe]=   0.000
#       2    He        -----      35   [Br/Fe]=   0.000      68   [Er/Fe]=   0.000
#       3   [Li/Fe]=   0.000      36   [Kr/Fe]=   0.000      69   [Tm/Fe]=   0.000
#       4   [Be/Fe]=   0.000      37   [Rb/Fe]=   0.000      70   [Yb/Fe]=   0.000
#       5   [B /Fe]=   0.000      38   [Sr/Fe]=   0.000      71   [Lu/Fe]=   0.000
#       6   [C /Fe]=   0.000      39   [Y /Fe]=   0.000      72   [Hf/Fe]=   0.000
#       7   [N /Fe]=   0.000      40   [Zr/Fe]=   0.000      73   [Ta/Fe]=   0.000
#       8   [O /Fe]=   0.000      41   [Nb/Fe]=   0.000      74   [W /Fe]=   0.000
#       9   [F /Fe]=   0.000      42   [Mo/Fe]=   0.000      75   [Re/Fe]=   0.000
#      10   [Ne/Fe]=   0.000      43   [Tc/Fe]=   0.000      76   [Os/Fe]=   0.000
#      11   [Na/Fe]=   0.000      44   [Ru/Fe]=   0.000      77   [Ir/Fe]=   0.000
#      12   [Mg/Fe]=   0.000      45   [Rh/Fe]=   0.000      78   [Pt/Fe]=   0.000
#      13   [Al/Fe]=   0.000      46   [Pd/Fe]=   0.000      79   [Au/Fe]=   0.000
#      14   [Si/Fe]=   0.000      47   [Ag/Fe]=   0.000      80   [Hg/Fe]=   0.000
#      15   [P /Fe]=   0.000      48   [Cd/Fe]=   0.000      81   [Tl/Fe]=   0.000
#      16   [S /Fe]=   0.000      49   [In/Fe]=   0.000      82   [Pb/Fe]=   0.000
#      17   [Cl/Fe]=   0.000      50   [Sn/Fe]=   0.000      83   [Bi/Fe]=   0.000
#      18   [Ar/Fe]=   0.000      51   [Sb/Fe]=   0.000      84   [Po/Fe]=   0.000
#      19   [K /Fe]=   0.000      52   [Te/Fe]=   0.000      85   [At/Fe]=   0.000
#      20   [Ca/Fe]=   0.000      53   [I /Fe]=   0.000      86   [Rn/Fe]=   0.000
#      21   [Sc/Fe]=   0.000      54   [Xe/Fe]=   0.000      87   [Fr/Fe]=   0.000
#      22   [Ti/Fe]=   0.000      55   [Cs/Fe]=   0.000      88   [Ra/Fe]=   0.000
#      23    V         -----      56   [Ba/Fe]=   0.000      89   [Ac/Fe]=   0.000
#      24    Cr        -----      57   [La/Fe]=   0.000      90   [Th/Fe]=   0.000
#      25    Mn        -----      58   [Ce/Fe]=   0.000      91   [Pa/Fe]=   0.000
#      26    Fe        -----      59   [Pr/Fe]=   0.000      92   [U /Fe]=   0.000
#      27    Co        -----      60   [Nd/Fe]=   0.000      93   [Np/Fe]=   0.000
#      28    Ni        -----      61   [Pm/Fe]=   0.000      94   [Pu/Fe]=   0.000
#      29    Cu        -----      62   [Sm/Fe]=   0.000      95   [Am/Fe]=   0.000
#      30    Zn        -----      63   [Eu/Fe]=   0.000      96   [Cm/Fe]=   0.000
#      31   [Ga/Fe]=   0.000      64   [Gd/Fe]=   0.000      97   [Bk/Fe]=   0.000
#      32   [Ge/Fe]=   0.000      65   [Tb/Fe]=   0.000      98   [Cf/Fe]=   0.000
#      33   [As/Fe]=   0.000      66   [Dy/Fe]=   0.000      99   [Es/Fe]=   0.000
#
#
#  Individual variations of metal abundances (mass fraction): log10(variation factor) (in dex)
#  Reference metallicity is in general NOT preserved Zref != Z
#
#       1   H    -----      34   Se   0.000      67   Ho   0.000
#       2   He   -----      35   Br   0.000      68   Er   0.000
#       3   Li   0.000      36   Kr   0.000      69   Tm   0.000
#       4   Be   0.000      37   Rb   0.000      70   Yb   0.000
#       5   B    0.000      38   Sr   0.000      71   Lu   0.000
#       6   C    0.000      39   Y    0.000      72   Hf   0.000
#       7   N    0.000      40   Zr   0.000      73   Ta   0.000
#       8   O    0.000      41   Nb   0.000      74   W    0.000
#       9   F    0.000      42   Mo   0.000      75   Re   0.000
#      10   Ne   0.000      43   Tc   0.000      76   Os   0.000
#      11   Na   0.000      44   Ru   0.000      77   Ir   0.000
#      12   Mg   0.000      45   Rh   0.000      78   Pt   0.000
#      13   Al   0.000      46   Pd   0.000      79   Au   0.000
#      14   Si   0.000      47   Ag   0.000      80   Hg   0.000
#      15   P    0.000      48   Cd   0.000      81   Tl   0.000
#      16   S    0.000      49   In   0.000      82   Pb   0.000
#      17   Cl   0.000      50   Sn   0.000      83   Bi   0.000
#      18   Ar   0.000      51   Sb   0.000      84   Po   0.000
#      19   K    0.000      52   Te   0.000      85   At   0.000
#      20   Ca   0.000      53   I    0.000      86   Rn   0.000
#      21   Sc   0.000      54   Xe   0.000      87   Fr   0.000
#      22   Ti   0.000      55   Cs   0.000      88   Ra   0.000
#      23   V    0.000      56   Ba   0.000      89   Ac   0.000
#      24   Cr   0.000      57   La   0.000      90   Th   0.000
#      25   Mn   0.000      58   Ce   0.000      91   Pa   0.000
#      26   Fe   0.000      59   Pr   0.000      92   U    0.000
#      27   Co   0.000      60   Nd   0.000      93   Np   0.000
#      28   Ni   0.000      61   Pm   0.000      94   Pu   0.000
#      29   Cu   0.000      62   Sm   0.000      95   Am   0.000
#      30   Zn   0.000      63   Eu   0.000      96   Cm   0.000
#      31   Ga   0.000      64   Gd   0.000      97   Bk   0.000
#      32   Ge   0.000      65   Tb   0.000      98   Cf   0.000
#      33   As   0.000      66   Dy   0.000      99   Es   0.000
#
#
#              VARIATION GRID OF C/O - C - N ABUNDANCES (in mass fraction)
#
#          FCO = log10(variation factor) of C/O ratio
#
#
#           FC = log10(variation factor) of carbon abundance
#
#
#           FN = log10(variation factor) of nitrogen abundance
#
#
#           FO = FC - FCO = log10(variation factor) of oxygen abundance 
#
#
#              TOTAL NUMBER OF TABLES:   mh x mco x mc x mn =     1
#
#
# TABLE      1     X=  0.700000     Y=  0.280000     Zref= 2.000000E-02     Z= 2.000000E-02     FCO=  0.000   FC=  0.000   FN=  0.000   FO=  0.000  C/O=   4.6289E-01
#
#     Zi   element     ni/nz             Xi/Z            ni/nH            Xi/XH             <Ai>
#
#      3     Li     8.100875E-09     3.280474E-09     1.360976E-11     9.372784E-11       6.941739
#      4     Be     1.899031E-08     9.983858E-09     3.190440E-11     2.852531E-10       9.012183
#      5     B      2.682452E-07     1.691934E-07     4.506616E-10     4.834097E-09      10.812224
#      6     C      2.744934E-01     1.923324E-01     4.611589E-04     5.495212E-03      12.011137
#      7     N      7.219913E-02     5.899377E-02     1.212971E-04     1.685536E-03      14.006763
#      8     O      4.451762E-01     4.155004E-01     7.479122E-04     1.187144E-02      15.999375
#      9     F      1.899031E-05     2.104677E-05     3.190440E-08     6.013364E-07      18.998405
#     10     Ne     1.067657E-01     1.256327E-01     1.793703E-04     3.589506E-03      20.171321
#     11     Na     1.474456E-03     1.977439E-03     2.477140E-06     5.649825E-05      22.989771
#     12     Mg     2.682452E-02     3.804042E-02     4.506616E-05     1.086869E-03      24.309551
#     13     Al     2.034379E-03     3.202102E-03     3.417831E-06     9.148862E-05      26.981541
#     14     Si     2.941250E-02     4.818948E-02     4.941407E-05     1.376842E-03      28.085611
#     15     P      1.943265E-04     3.511255E-04     3.264755E-07     1.003216E-05      30.973765
#     16     S      1.092526E-02     2.043583E-02     1.835484E-05     5.838807E-04      32.064451
#     17     Cl     1.344411E-04     2.780846E-04     2.258659E-07     7.945273E-06      35.457532
#     18     Ar     2.390738E-03     5.571341E-03     4.016526E-06     1.591812E-04      39.947662
#     19     K      1.043835E-04     2.381001E-04     1.753681E-07     6.802860E-06      39.101298
#     20     Ca     1.772687E-03     4.144371E-03     2.978178E-06     1.184106E-04      40.076544
#     21     Sc     8.878344E-07     2.328387E-06     1.491594E-09     6.652535E-08      44.955917
#     22     Ti     6.584639E-05     1.839131E-04     1.106243E-07     5.254661E-06      47.878925
#     23     V      5.868565E-06     1.743977E-05     9.859402E-09     4.982791E-07      50.941572
#     24     Cr     4.154626E-04     1.260236E-03     6.979922E-07     3.600674E-05      51.997623
#     25     Mn     2.503410E-04     8.023089E-04     4.205819E-07     2.292311E-05      54.938046
#     26     Fe     2.390738E-02     7.788802E-02     4.016526E-05     2.225372E-03      55.847311
#     27     Co     6.738015E-05     2.316479E-04     1.132011E-07     6.618511E-06      58.933189
#     28     Ni     1.314111E-03     4.500340E-03     2.207754E-06     1.285812E-04      58.705254
#     29     Cu     1.226399E-05     4.546373E-05     2.060395E-08     1.298964E-06      63.547234
#     30     Zn     3.009761E-05     1.148045E-04     5.056507E-08     3.280129E-06      65.386875
#     31     Ga     5.734980E-07     2.332430E-06     9.634975E-10     6.664084E-08      69.717234
#     32     Ge     1.943265E-06     8.233550E-06     3.264755E-09     2.352443E-07      72.630452
#     33     As     1.772687E-07     7.747747E-07     2.978178E-10     2.213642E-08      74.921600
#     34     Se     1.943265E-06     8.954514E-06     3.264755E-09     2.558433E-07      78.990277
#     35     Br     3.225017E-07     1.503317E-06     5.418145E-10     4.295192E-08      79.906523
#     36     Kr     1.543235E-06     7.544269E-06     2.592690E-09     2.155506E-07      83.800924
#     37     Rb     3.009761E-07     1.500625E-06     5.056507E-10     4.287501E-08      85.468072
#     38     Sr     5.604436E-07     2.864535E-06     9.415656E-10     8.184385E-08      87.616461
#     39     Y      1.314111E-07     6.815517E-07     2.207754E-10     1.947291E-08      88.905867
#     40     Zr     3.009761E-07     1.601682E-06     5.056507E-10     4.576234E-08      91.223746
#     41     Nb     1.988529E-08     1.077740E-07     3.340801E-11     3.079257E-09      92.906380
#     42     Mo     6.288281E-08     3.517547E-07     1.056454E-10     1.005013E-08      95.889605
#     43     Tc     0.000000E+00     0.000000E+00     0.000000E+00     0.000000E+00      96.906390
#     44     Ru     5.230364E-08     3.083729E-07     8.787202E-11     8.810654E-09     101.066641
#     45     Rh     9.963959E-09     5.981457E-08     1.673981E-11     1.708988E-09     102.905511
#     46     Pd     3.702814E-08     2.298981E-07     6.220862E-11     6.568518E-09     106.430727
#     47     Ag     6.584639E-09     4.143460E-08     1.106243E-11     1.183846E-09     107.868530
#     48     Cd     4.451762E-08     2.919592E-07     7.479122E-11     8.341693E-09     112.422659
#     49     In     3.455667E-08     2.314618E-07     5.805647E-11     6.613196E-09     114.818279
#     50     Sn     7.560177E-08     5.236521E-07     1.270137E-10     1.496149E-08     118.733825
#     51     Sb     7.560177E-09     5.369940E-08     1.270137E-11     1.534268E-09     121.758986
#     52     Te     1.314111E-07     9.783941E-07     2.207754E-10     2.795412E-08     127.627845
#     53     I      2.445862E-08     1.810695E-07     4.109137E-11     5.173414E-09     126.904474
#     54     Xe     1.117975E-07     8.562620E-07     1.878238E-10     2.446463E-08     131.292004
#     55     Cs     1.020075E-08     7.908810E-08     1.713762E-11     2.259660E-09     132.905440
#     56     Ba     1.407771E-07     1.127784E-06     2.365106E-10     3.222239E-08     137.327464
#     57     La     1.117975E-08     9.059159E-08     1.878238E-11     2.588331E-09     138.905511
#     58     Ce     2.873637E-08     2.348831E-07     4.827815E-11     6.710945E-09     140.114588
#     59     Pr     3.877323E-09     3.187154E-08     6.514043E-12     9.106156E-10     140.907700
#     60     Nd     2.390738E-08     2.011673E-07     4.016526E-11     5.747637E-09     144.241079
#     61     Pm     0.000000E+00     0.000000E+00     0.000000E+00     0.000000E+00     144.912790
#     62     Sm     7.736276E-09     6.785951E-08     1.299722E-11     1.938843E-09     150.363469
#     63     Eu     2.503410E-09     2.219268E-08     4.205819E-12     6.340765E-10     151.964200
#     64     Gd     9.963959E-09     9.140606E-08     1.673981E-11     2.611602E-09     157.255784
#     65     Tb     6.005262E-10     5.567519E-09     1.008906E-12     1.590720E-10     158.925390
#     66     Dy     1.043835E-08     9.895142E-08     1.753681E-11     2.827184E-09     162.500111
#     67     Ho     1.375726E-09     1.323637E-08     2.311270E-12     3.781821E-10     164.930360
#     68     Er     6.434754E-09     6.278618E-08     1.081062E-11     1.793891E-09     167.261394
#     69     Tm     7.560177E-10     7.450511E-09     1.270137E-12     2.128717E-10     168.934240
#     70     Yb     9.091425E-09     9.177127E-08     1.527392E-11     2.622036E-09     173.036747
#     71     Lu     8.682243E-10     8.861840E-09     1.458648E-12     2.531954E-10     174.966749
#     72     Hf     5.604436E-09     5.835579E-08     9.415656E-12     1.667308E-09     178.490703
#     73     Ta     5.604436E-10     5.915915E-09     9.415656E-13     1.690262E-10     180.947907
#     74     W      9.741637E-09     1.044749E-07     1.636630E-11     2.984997E-09     183.841519
#     75     Re     1.440562E-09     1.564873E-08     2.420196E-12     4.471067E-10     186.213359
#     76     Os     1.732335E-08     1.922491E-07     2.910386E-11     5.492830E-09     190.237368
#     77     Ir     1.692902E-08     1.898271E-07     2.844138E-11     5.423630E-09     192.216095
#     78     Pt     4.770149E-08     5.428533E-07     8.014023E-11     1.551010E-08     195.080617
#     79     Au     7.736276E-09     8.889163E-08     1.299722E-11     2.539761E-09     196.966550
#     80     Hg     1.020075E-08     1.193693E-07     1.713762E-11     3.410551E-09     200.596900
#     81     Tl     6.005262E-09     7.160031E-08     1.008906E-11     2.045723E-09     204.383823
#     82     Pb     6.738015E-08     8.145118E-07     1.132011E-10     2.327177E-08     207.218721
#     83     Bi     3.877323E-09     4.726873E-08     6.514043E-12     1.350535E-09     208.980400
#     84     Po     0.000000E+00     0.000000E+00     0.000000E+00     0.000000E+00     208.982440
#     85     At     0.000000E+00     0.000000E+00     0.000000E+00     0.000000E+00     209.987040
#     86     Rn     0.000000E+00     0.000000E+00     0.000000E+00     0.000000E+00     222.017610
#     87     Fr     0.000000E+00     0.000000E+00     0.000000E+00     0.000000E+00     223.019760
#     88     Ra     0.000000E+00     0.000000E+00     0.000000E+00     0.000000E+00     226.025440
#     89     Ac     0.000000E+00     0.000000E+00     0.000000E+00     0.000000E+00     227.027770
#     90     Th     9.091425E-10     1.230630E-08     1.527392E-12     3.516087E-10     232.038080
#     91     Pa     0.000000E+00     0.000000E+00     0.000000E+00     0.000000E+00     231.035900
#     92     U      2.390738E-10     3.319695E-09     4.016526E-13     9.484842E-11     238.028942
#     93     Np     0.000000E+00     0.000000E+00     0.000000E+00     0.000000E+00     237.048190
#     94     Pu     0.000000E+00     0.000000E+00     0.000000E+00     0.000000E+00     244.064240
#     95     Am     0.000000E+00     0.000000E+00     0.000000E+00     0.000000E+00     243.061390
#     96     Cm     0.000000E+00     0.000000E+00     0.000000E+00     0.000000E+00     247.070380
#     97     Bk     0.000000E+00     0.000000E+00     0.000000E+00     0.000000E+00     247.070320
#     98     Cf     0.000000E+00     0.000000E+00     0.000000E+00     0.000000E+00     251.079610
#     99     Es     0.000000E+00     0.000000E+00     0.000000E+00     0.000000E+00     254.088050
#
#                                                                                log10(R)
# log10(T)  -8.0000  -7.9000  -7.8000  -7.7000  -7.6000  -7.5000  -7.4000  -7.3000  -7.2000  -7.1000  -7.0000  -6.9000  -6.8000  -6.7000  -6.6000  -6.5000  -6.4000  -6.3000  -6.2000  -6.1000  -6.0000  -5.9000  -5.8000  -5.7000  -5.6000  -5.5000  -5.4000  -5.3000  -5.2000  -5.1000  -5.0000  -4.9000  -4.8000  -4.7000  -4.6000  -4.5000  -4.4000  -4.3000  -4.2000  -4.1000  -4.0000  -3.9000  -3.8000  -3.7000  -3.6000  -3.5000  -3.4000  -3.3000  -3.2000  -3.1000  -3.0000  -2.9000  -2.8000  -2.7000  -2.6000  -2.5000  -2.4000  -2.3000  -2.2000  -2.1000  -2.0000  -1.9000  -1.8000  -1.7000  -1.6000  -1.5000  -1.4000  -1.3000  -1.2000  -1.1000  -1.0000  -0.9000  -0.8000  -0.7000  -0.6000  -0.5000  -0.4000  -0.3000  -0.2000  -0.1000   0.0000   0.1000   0.2000   0.3000   0.4000   0.5000   0.6000   0.7000   0.8000   0.9000   1.0000   1.1000   1.2000   1.3000   1.4000   1.5000   1.6000   1.7000   1.8000   1.9000   2.0000   2.1000   2.2000   2.3000   2.4000   2.5000   2.6000   2.7000   2.8000   2.9000   3.0000   3.1000   3.2000   3.3000   3.4000   3.5000   3.6000   3.7000   3.8000   3.9000   4.0000   4.1000   4.2000   4.3000   4.4000   4.5000   4.6000   4.7000   4.8000   4.9000   5.0000   5.1000   5.2000   5.3000   5.4000   5.5000   5.6000   5.7000   5.8000   5.9000   6.0000
4.500  -0.4248  -0.4228  -0.4205  -0.4178  -0.4153  -0.4124  -0.4091  -0.4054  -0.4011  -0.3966  -0.3913  -0.3852  -0.3782  -0.3701  -0.3612  -0.3511  -0.3396  -0.3265  -0.3117  -0.2959  -0.2785  -0.2594  -0.2385  -0.2158  -0.1929  -0.1686  -0.1425  -0.1144  -0.0844  -0.0538  -0.0215   0.0135   0.0514   0.0927   0.1366   0.1840   0.2355   0.2915   0.3520   0.4168   0.4858   0.5588   0.6354   0.7153   0.7985   0.8844   0.9727   1.0631   1.1554   1.2502   1.3472   1.4457   1.5463   1.6479   1.7512   1.8560   1.9621   2.0696   2.1786   2.2878   2.3976   2.5087   2.6210   2.7345   2.8470   2.9592   3.0723   3.1860   3.3001   3.4129   3.5240   3.6347   3.7446   3.8534   3.9606   4.0630   4.1633   4.2613   4.3573   4.4506   4.5388   4.6231   4.7055   4.7819   4.8537   4.9224   4.9832   5.0405   5.0935   5.1443   5.1889   5.2281   5.2676   5.3031   5.3354   5.3637   5.3900   5.4137   5.4360   5.4571   5.4769   5.4952   5.5135   5.5314   5.5479   5.5659   5.5835   5.6009   5.6201   5.6395   5.6590   5.6782   5.6967   5.7143   5.7305   5.7452   5.7579   5.7685   5.7765   5.7817   5.7841   5.7836   5.7802   5.7741   5.7654   5.7544   5.7412   5.7261   5.7094   5.6910   5.6714   5.6505   5.6287   5.6059   5.5824   5.5582   5.5335   5.5084   5.4830   5.4573   5.4315
4.450  -0.4242  -0.4217  -0.4189  -0.4158  -0.4124  -0.4088  -0.4050  -0.4008  -0.3961  -0.3909  -0.3851  -0.3791  -0.3722  -0.3642  -0.3550  -0.3450  -0.3349  -0.3234  -0.3103  -0.2956  -0.2795  -0.2634  -0.2454  -0.2253  -0.2030  -0.1786  -0.1536  -0.1264  -0.0971  -0.0655  -0.0318   0.0035   0.0414   0.0820   0.1258   0.1731   0.2248   0.2805   0.3402   0.4042   0.4724   0.5457   0.6225   0.7025   0.7853   0.8707   0.9585   1.0483   1.1400   1.2337   1.3290   1.4251   1.5230   1.6228   1.7247   1.8277   1.9307   2.0350   2.1408   2.2480   2.3562   2.4630   2.5708   2.6795   2.7889   2.8989   3.0075   3.1166   3.2259   3.3351   3.4440   3.5503   3.6555   3.7595   3.8620   3.9623   4.0602   4.1535   4.2440   4.3313   4.4157   4.4957   4.5719   4.6430   4.7111   4.7738   4.8322   4.8876   4.9375   4.9837   5.0265   5.0665   5.1057   5.1398   5.1725   5.2056   5.2353   5.2648   5.2929   5.3190   5.3449   5.3704   5.3958   5.4214   5.4466   5.4728   5.4991   5.5257   5.5537   5.5812   5.6096   5.6385   5.6671   5.6947   5.7208   5.7450   5.7668   5.7859   5.8022   5.8156   5.8261   5.8338   5.8387   5.8409   5.8405   5.8377   5.8326   5.8254   5.8162   5.8053   5.7927   5.7787   5.7633   5.7468   5.7292   5.7108   5.6915   5.6717   5.6514   5.6308   5.6100
4.400  -0.4508  -0.4509  -0.4511  -0.4510  -0.4503  -0.4491  -0.4473  -0.4454  -0.4429  -0.4396  -0.4354  -0.4300  -0.4244  -0.4180  -0.4106  -0.4020  -0.3922  -0.3818  -0.3707  -0.3586  -0.3453  -0.3306  -0.3147  -0.2971  -0.2775  -0.2556  -0.2311  -0.2050  -0.1770  -0.1464  -0.1130  -0.0766  -0.0367   0.0070   0.0542   0.1052   0.1602   0.2199   0.2842   0.3526   0.4249   0.5010   0.5802   0.6621   0.7465   0.8331   0.9217   1.0113   1.1022   1.1948   1.2891   1.3849   1.4816   1.5794   1.6788   1.7801   1.8828   1.9864   2.0912   2.1974   2.3050   2.4137   2.5223   2.6307   2.7395   2.8485   2.9575   3.0651   3.1704   3.2752   3.3793   3.4824   3.5839   3.6811   3.7763   3.8691   3.9591   4.0458   4.1289   4.2072   4.2819   4.3527   4.4195   4.4828   4.5423   4.5968   4.6477   4.6961   4.7406   4.7823   4.8213   4.8587   4.8933   4.9258   4.9569   4.9871   5.0175   5.0464   5.0749   5.1052   5.1340   5.1640   5.1948   5.2249   5.2560   5.2882   5.3214   5.3553   5.3907   5.4268   5.4634   5.5011   5.5379   5.5746   5.6106   5.6449   5.6769   5.7059   5.7316   5.7537   5.7723   5.7873   5.7989   5.8073   5.8128   5.8157   5.8161   5.8144   5.8108   5.8055   5.7987   5.7905   5.7812   5.7709   5.7597   5.7478   5.7354   5.7226   5.7096   5.6966   5.6839
4.350  -0.4731  -0.4718  -0.4700  -0.4679  -0.4657  -0.4629  -0.4592  -0.4547  -0.4493  -0.4439  -0.4377  -0.4306  -0.4227  -0.4142  -0.4056  -0.3964  -0.3867  -0.3762  -0.3651  -0.3534  -0.3408  -0.3270  -0.3117  -0.2946  -0.2758  -0.2548  -0.2315  -0.2055  -0.1767  -0.1447  -0.1094  -0.0706  -0.0283   0.0177   0.0669   0.1199   0.1769   0.2380   0.3030   0.3709   0.4426   0.5179   0.5965   0.6779   0.7611   0.8465   0.9338   1.0226   1.1128   1.2041   1.2963   1.3894   1.4833   1.5779   1.6738   1.7705   1.8680   1.9665   2.0658   2.1657   2.2667   2.3687   2.4717   2.5756   2.6789   2.7828   2.8871   2.9916   3.0959   3.1982   3.2985   3.3974   3.4943   3.5887   3.6797   3.7650   3.8467   3.9245   3.9980   4.0674   4.1330   4.1927   4.2486   4.3010   4.3501   4.3960   4.4393   4.4798   4.5177   4.5530   4.5866   4.6192   4.6501   4.6801   4.7092   4.7386   4.7672   4.7950   4.8230   4.8515   4.8814   4.9113   4.9421   4.9740   5.0086   5.0432   5.0782   5.1140   5.1512   5.1899   5.2298   5.2704   5.3117   5.3524   5.3932   5.4327   5.4699   5.5048   5.5373   5.5666   5.5924   5.6147   5.6334   5.6486   5.6605   5.6695   5.6757   5.6796   5.6814   5.6816   5.6803   5.6780   5.6748   5.6711   5.6670   5.6629   5.6588   5.6551   5.6519   5.6493   5.6478
4.300  -0.4782  -0.4769  -0.4752  -0.4732  -0.4713  -0.4692  -0.4670  -0.4645  -0.4617  -0.4586  -0.4551  -0.4514  -0.4472  -0.4427  -0.4376  -0.4320  -0.4256  -0.4185  -0.4104  -0.4011  -0.3905  -0.3783  -0.3644  -0.3484  -0.3300  -0.3093  -0.2861  -0.2600  -0.2307  -0.1979  -0.1624  -0.1238  -0.0814  -0.0352   0.0149   0.0683   0.1254   0.1865   0.2518   0.3210   0.3940   0.4704   0.5497   0.6317   0.7158   0.8025   0.8912   0.9811   1.0720   1.1638   1.2572   1.3518   1.4470   1.5428   1.6394   1.7371   1.8362   1.9363   2.0377   2.1402   2.2432   2.3463   2.4503   2.5548   2.6595   2.7636   2.8642   2.9639   3.0622   3.1587   3.2528   3.3418   3.4267   3.5083   3.5861   3.6599   3.7296   3.7936   3.8530   3.9086   3.9605   4.0090   4.0543   4.0969   4.1361   4.1727   4.2072   4.2401   4.2714   4.3016   4.3309   4.3594   4.3874   4.4144   4.4413   4.4682   4.4957   4.5233   4.5514   4.5802   4.6102   4.6409   4.6703   4.7007   4.7323   4.7661   4.8006   4.8365   4.8738   4.9137   4.9545   4.9964   5.0379   5.0795   5.1206   5.1605   5.1989   5.2351   5.2682   5.2988   5.3263   5.3502   5.3710   5.3891   5.4048   5.4183   5.4301   5.4408   5.4509   5.4610   5.4716   5.4831   5.4959   5.5052   5.5148   5.5248   5.5350   5.5455   5.5564   5.5676   5.5794
4.250  -0.4859  -0.4849  -0.4836  -0.4820  -0.4802  -0.4781  -0.4757  -0.4731  -0.4703  -0.4672  -0.4638  -0.4600  -0.4560  -0.4517  -0.4468  -0.4412  -0.4348  -0.4278  -0.4196  -0.4100  -0.3987  -0.3857  -0.3717  -0.3555  -0.3369  -0.3156  -0.2915  -0.2656  -0.2365  -0.2043  -0.1685  -0.1294  -0.0868  -0.0405   0.0096   0.0636   0.1217   0.1845   0.2512   0.3215   0.3952   0.4720   0.5526   0.6353   0.7200   0.8063   0.8940   0.9843   1.0757   1.1681   1.2615   1.3560   1.4529   1.5511   1.6505   1.7513   1.8531   1.9561   2.0602   2.1648   2.2695   2.3741   2.4765   2.5771   2.6762   2.7734   2.8682   2.9593   3.0435   3.1247   3.2024   3.2765   3.3468   3.4124   3.4722   3.5282   3.5807   3.6298   3.6757   3.7186   3.7587   3.7951   3.8294   3.8619   3.8927   3.9222   3.9506   3.9781   4.0049   4.0309   4.0564   4.0818   4.1073   4.1329   4.1588   4.1853   4.2124   4.2401   4.2680   4.2952   4.3235   4.3528   4.3831   4.4145   4.4471   4.4808   4.5160   4.5511   4.5837   4.6178   4.6534   4.6907   4.7282   4.7660   4.8046   4.8416   4.8783   4.9133   4.9455   4.9751   5.0019   5.0262   5.0479   5.0672   5.0843   5.0997   5.1143   5.1285   5.1427   5.1582   5.1754   5.1949   5.2174   5.2436   5.2734   5.3067   5.3434   5.3828   5.4241   5.4668   5.5104
4.200  -0.4907  -0.4891  -0.4872  -0.4851  -0.4830  -0.4806  -0.4780  -0.4750  -0.4721  -0.4691  -0.4659  -0.4622  -0.4580  -0.4538  -0.4493  -0.4441  -0.4380  -0.4307  -0.4227  -0.4138  -0.4031  -0.3905  -0.3756  -0.3589  -0.3397  -0.3178  -0.2927  -0.2644  -0.2325  -0.1969  -0.1578  -0.1148  -0.0680  -0.0168   0.0387   0.0980   0.1610   0.2275   0.2978   0.3717   0.4481   0.5270   0.6081   0.6917   0.7781   0.8660   0.9558   1.0471   1.1399   1.2347   1.3307   1.4276   1.5256   1.6242   1.7229   1.8219   1.9212   2.0204   2.1192   2.2151   2.3102   2.4038   2.4956   2.5849   2.6692   2.7499   2.8272   2.9009   2.9708   3.0369   3.0973   3.1530   3.2050   3.2537   3.2992   3.3418   3.3817   3.4185   3.4522   3.4840   3.5142   3.5429   3.5705   3.5972   3.6230   3.6484   3.6726   3.6964   3.7201   3.7439   3.7679   3.7922   3.8170   3.8423   3.8683   3.8941   3.9197   3.9460   3.9733   4.0016   4.0308   4.0611   4.0925   4.1249   4.1585   4.1904   4.2230   4.2566   4.2913   4.3266   4.3625   4.3989   4.4357   4.4722   4.5082   4.5435   4.5775   4.6105   4.6412   4.6698   4.6960   4.7210   4.7430   4.7637   4.7828   4.7997   4.8157   4.8311   4.8468   4.8634   4.8817   4.9023   4.9259   4.9537   4.9861   5.0236   5.0661   5.1142   5.1668   5.2236   5.2836
4.150  -0.4827  -0.4810  -0.4791  -0.4770  -0.4748  -0.4731  -0.4712  -0.4692  -0.4668  -0.4642  -0.4619  -0.4592  -0.4561  -0.4524  -0.4481  -0.4431  -0.4372  -0.4302  -0.4218  -0.4118  -0.4000  -0.3860  -0.3697  -0.3507  -0.3288  -0.3037  -0.2753  -0.2435  -0.2081  -0.1690  -0.1254  -0.0779  -0.0266   0.0288   0.0881   0.1518   0.2194   0.2906   0.3652   0.4429   0.5242   0.6084   0.6947   0.7832   0.8734   0.9654   1.0588   1.1530   1.2481   1.3436   1.4388   1.5339   1.6288   1.7230   1.8166   1.9081   1.9972   2.0844   2.1699   2.2530   2.3333   2.4083   2.4804   2.5491   2.6142   2.6755   2.7326   2.7855   2.8347   2.8806   2.9235   2.9636   3.0011   3.0364   3.0693   3.0994   3.1279   3.1552   3.1814   3.2068   3.2315   3.2557   3.2796   3.3027   3.3253   3.3479   3.3707   3.3938   3.4174   3.4415   3.4661   3.4915   3.5176   3.5420   3.5672   3.5932   3.6202   3.6481   3.6770   3.7068   3.7377   3.7695   3.8016   3.8326   3.8646   3.8976   3.9314   3.9659   4.0012   4.0371   4.0733   4.1098   4.1462   4.1824   4.2181   4.2531   4.2871   4.3198   4.3511   4.3810   4.4091   4.4355   4.4602   4.4833   4.5055   4.5260   4.5454   4.5643   4.5838   4.6026   4.6221   4.6439   4.6676   4.6928   4.7211   4.7533   4.7900   4.8319   4.8795   4.9326   4.9920
4.100  -0.4974  -0.4970  -0.4966  -0.4962  -0.4957  -0.4951  -0.4944  -0.4936  -0.4925  -0.4912  -0.4896  -0.4876  -0.4851  -0.4820  -0.4783  -0.4736  -0.4679  -0.4611  -0.4529  -0.4430  -0.4312  -0.4172  -0.4007  -0.3812  -0.3586  -0.3324  -0.3024  -0.2681  -0.2294  -0.1864  -0.1387  -0.0860  -0.0283   0.0339   0.1006   0.1715   0.2464   0.3248   0.4066   0.4911   0.5780   0.6666   0.7570   0.8483   0.9406   1.0334   1.1262   1.2184   1.3100   1.4008   1.4906   1.5788   1.6641   1.7472   1.8278   1.9051   1.9795   2.0502   2.1166   2.1790   2.2379   2.2930   2.3445   2.3926   2.4364   2.4775   2.5159   2.5518   2.5855   2.6174   2.6475   2.6754   2.7023   2.7280   2.7528   2.7770   2.8008   2.8242   2.8475   2.8707   2.8941   2.9171   2.9401   2.9634   2.9872   3.0116   3.0366   3.0623   3.0889   3.1162   3.1443   3.1705   3.1974   3.2251   3.2537   3.2833   3.3138   3.3452   3.3776   3.4108   3.4446   3.4759   3.5081   3.5411   3.5748   3.6092   3.6443   3.6799   3.7161   3.7525   3.7893   3.8261   3.8629   3.8997   3.9362   3.9723   4.0080   4.0432   4.0778   4.1116   4.1446   4.1766   4.2078   4.2378   4.2668   4.2948   4.3219   4.3479   4.3732   4.3979   4.4222   4.4463   4.4713   4.4961   4.5217   4.5486   4.5782   4.6093   4.6433   4.6827   4.7268
4.050  -0.4980  -0.4980  -0.4980  -0.4980  -0.4982  -0.4983  -0.4985  -0.4987  -0.4988  -0.4987  -0.4984  -0.4977  -0.4965  -0.4944  -0.4913  -0.4870  -0.4812  -0.4736  -0.4642  -0.4524  -0.4381  -0.4210  -0.4006  -0.3769  -0.3492  -0.3175  -0.2816  -0.2415  -0.1969  -0.1477  -0.0941  -0.0358   0.0271   0.0942   0.1651   0.2396   0.3176   0.3984   0.4808   0.5647   0.6501   0.7365   0.8234   0.9096   0.9950   1.0792   1.1623   1.2436   1.3225   1.3984   1.4712   1.5405   1.6066   1.6688   1.7270   1.7816   1.8326   1.8801   1.9243   1.9650   2.0033   2.0391   2.0723   2.1036   2.1327   2.1606   2.1873   2.2129   2.2377   2.2617   2.2852   2.3072   2.3299   2.3526   2.3753   2.3981   2.4214   2.4449   2.4688   2.4919   2.5159   2.5404   2.5656   2.5916   2.6183   2.6458   2.6741   2.7033   2.7333   2.7640   2.7938   2.8246   2.8563   2.8888   2.9223   2.9567   2.9921   3.0282   3.0654   3.1021   3.1365   3.1715   3.2073   3.2435   3.2803   3.3176   3.3554   3.3933   3.4317   3.4665   3.4972   3.5281   3.5594   3.5912   3.6236   3.6568   3.6909   3.7261   3.7625   3.8002   3.8389   3.8786   3.9190   3.9597   4.0005   4.0410   4.0811   4.1205   4.1591   4.1969   4.2339   4.2700   4.3053   4.3401   4.3741   4.4076   4.4406   4.4733   4.5060   4.5389   4.5727
4.000  -0.5259  -0.5277  -0.5294  -0.5308  -0.5318  -0.5325  -0.5327  -0.5324  -0.5315  -0.5299  -0.5276  -0.5245  -0.5205  -0.5153  -0.5089  -0.5011  -0.4918  -0.4806  -0.4673  -0.4518  -0.4337  -0.4127  -0.3887  -0.3612  -0.3302  -0.2960  -0.2577  -0.2154  -0.1690  -0.1186  -0.0647  -0.0067   0.0552   0.1207   0.1897   0.2604   0.3334   0.4079   0.4835   0.5593   0.6342   0.7078   0.7799   0.8497   0.9169   0.9807   1.0415   1.0988   1.1523   1.2024   1.2490   1.2922   1.3325   1.3702   1.4051   1.4374   1.4680   1.4968   1.5238   1.5495   1.5736   1.5972   1.6201   1.6424   1.6642   1.6858   1.7065   1.7277   1.7491   1.7706   1.7924   1.8145   1.8362   1.8594   1.8831   1.9074   1.9324   1.9582   1.9848   2.0122   2.0389   2.0680   2.0981   2.1291   2.1610   2.1940   2.2279   2.2627   2.2964   2.3324   2.3688   2.4064   2.4450   2.4845   2.5250   2.5665   2.6089   2.6522   2.6964   2.7385   2.7800   2.8221   2.8646   2.9075   2.9508   2.9945   3.0384   3.0826   3.1269   3.1637   3.1993   3.2355   3.2723   3.3098   3.3484   3.3884   3.4301   3.4737   3.5191   3.5665   3.6155   3.6660   3.7176   3.7698   3.8223   3.8747   3.9266   3.9778   4.0281   4.0773   4.1253   4.1721   4.2176   4.2617   4.3044   4.3454   4.3846   4.4219   4.4568   4.4893   4.5193
3.950  -0.5412  -0.5406  -0.5397  -0.5386  -0.5371  -0.5353  -0.5331  -0.5306  -0.5276  -0.5240  -0.5196  -0.5145  -0.5085  -0.5013  -0.4927  -0.4827  -0.4711  -0.4580  -0.4428  -0.4253  -0.4054  -0.3834  -0.3589  -0.3316  -0.3013  -0.2679  -0.2323  -0.1942  -0.1530  -0.1088  -0.0620  -0.0132   0.0371   0.0890   0.1417   0.1949   0.2477   0.2997   0.3502   0.3987   0.4451   0.4892   0.5308   0.5699   0.6065   0.6408   0.6731   0.7031   0.7315   0.7582   0.7834   0.8073   0.8305   0.8527   0.8743   0.8950   0.9156   0.9359   0.9561   0.9761   0.9965   1.0173   1.0384   1.0599   1.0813   1.1038   1.1270   1.1507   1.1750   1.2000   1.2254   1.2523   1.2800   1.3086   1.3381   1.3683   1.3985   1.4305   1.4633   1.4971   1.5322   1.5684   1.6056   1.6424   1.6815   1.7216   1.7626   1.8046   1.8475   1.8913   1.9332   1.9780   2.0236   2.0700   2.1174   2.1656   2.2145   2.2642   2.3146   2.3625   2.4094   2.4566   2.5043   2.5522   2.6003   2.6486   2.6971   2.7458   2.7946   2.8379   2.8790   2.9208   2.9634   3.0077   3.0535   3.1013   3.1512   3.2031   3.2570   3.3129   3.3703   3.4290   3.4888   3.5493   3.6102   3.6713   3.7323   3.7929   3.8530   3.9124   3.9710   4.0286   4.0851   4.1403   4.1942   4.2465   4.2970   4.3455   4.3917   4.4352   4.4757
3.900  -0.5385  -0.5370  -0.5353  -0.5334  -0.5314  -0.5290  -0.5263  -0.5232  -0.5199  -0.5160  -0.5116  -0.5063  -0.5003  -0.4938  -0.4863  -0.4775  -0.4675  -0.4563  -0.4443  -0.4312  -0.4166  -0.4007  -0.3836  -0.3659  -0.3471  -0.3277  -0.3074  -0.2868  -0.2660  -0.2455  -0.2250  -0.2049  -0.1851  -0.1660  -0.1474  -0.1294  -0.1121  -0.0952  -0.0788  -0.0629  -0.0473  -0.0320  -0.0168  -0.0016   0.0135   0.0288   0.0442   0.0597   0.0758   0.0923   0.1092   0.1267   0.1449   0.1635   0.1831   0.2035   0.2246   0.2466   0.2695   0.2932   0.3178   0.3430   0.3696   0.3970   0.4254   0.4546   0.4842   0.5150   0.5467   0.5791   0.6120   0.6461   0.6812   0.7171   0.7538   0.7906   0.8288   0.8677   0.9072   0.9475   0.9885   1.0301   1.0735   1.1178   1.1631   1.2092   1.2563   1.3035   1.3524   1.4022   1.4530   1.5041   1.5559   1.6086   1.6615   1.7161   1.7716   1.8278   1.8848   1.9424   1.9986   2.0509   2.1042   2.1578   2.2117   2.2658   2.3202   2.3748   2.4299   2.4826   2.5304   2.5791   2.6289   2.6799   2.7322   2.7860   2.8412   2.8978   2.9556   3.0146   3.0748   3.1360   3.1982   3.2612   3.3248   3.3887   3.4528   3.5170   3.5809   3.6444   3.7073   3.7695   3.8309   3.8912   3.9504   4.0083   4.0649   4.1200   4.1734   4.2250   4.2746
3.850  -0.5354  -0.5343  -0.5331  -0.5319  -0.5310  -0.5302  -0.5293  -0.5285  -0.5276  -0.5270  -0.5268  -0.5267  -0.5269  -0.5273  -0.5284  -0.5300  -0.5323  -0.5354  -0.5394  -0.5445  -0.5507  -0.5582  -0.5669  -0.5767  -0.5874  -0.5990  -0.6113  -0.6240  -0.6372  -0.6504  -0.6635  -0.6766  -0.6890  -0.7008  -0.7118  -0.7217  -0.7305  -0.7379  -0.7437  -0.7479  -0.7503  -0.7507  -0.7491  -0.7454  -0.7398  -0.7320  -0.7222  -0.7101  -0.6960  -0.6800  -0.6619  -0.6419  -0.6201  -0.5965  -0.5713  -0.5448  -0.5168  -0.4875  -0.4571  -0.4253  -0.3924  -0.3584  -0.3235  -0.2877  -0.2509  -0.2132  -0.1751  -0.1359  -0.0960  -0.0556  -0.0145   0.0272   0.0695   0.1123   0.1558   0.2007   0.2462   0.2923   0.3387   0.3862   0.4344   0.4832   0.5327   0.5832   0.6352   0.6882   0.7422   0.7968   0.8529   0.9101   0.9683   1.0277   1.0879   1.1475   1.2081   1.2697   1.3323   1.3958   1.4600   1.5251   1.5909   1.6534   1.7141   1.7749   1.8358   1.8967   1.9574   2.0180   2.0785   2.1346   2.1871   2.2397   2.2924   2.3451   2.3979   2.4508   2.5039   2.5574   2.6111   2.6651   2.7195   2.7745   2.8298   2.8856   2.9418   2.9984   3.0553   3.1124   3.1697   3.2270   3.2842   3.3413   3.3981   3.4546   3.5106   3.5660   3.6209   3.6750   3.7283   3.7808   3.8324
3.800  -0.5616  -0.5666  -0.5727  -0.5799  -0.5885  -0.5986  -0.6105  -0.6241  -0.6395  -0.6568  -0.6759  -0.6969  -0.7197  -0.7441  -0.7701  -0.7975  -0.8262  -0.8561  -0.8870  -0.9187  -0.9512  -0.9842  -1.0176  -1.0514  -1.0853  -1.1192  -1.1530  -1.1865  -1.2195  -1.2519  -1.2835  -1.3141  -1.3436  -1.3716  -1.3980  -1.4225  -1.4448  -1.4647  -1.4819  -1.4964  -1.5077  -1.5158  -1.5205  -1.5219  -1.5195  -1.5135  -1.5040  -1.4911  -1.4749  -1.4555  -1.4335  -1.4086  -1.3813  -1.3517  -1.3201  -1.2866  -1.2515  -1.2150  -1.1771  -1.1380  -1.0980  -1.0568  -1.0148  -0.9721  -0.9285  -0.8842  -0.8392  -0.7935  -0.7469  -0.6997  -0.6518  -0.6033  -0.5542  -0.5043  -0.4537  -0.4023  -0.3501  -0.2965  -0.2418  -0.1859  -0.1288  -0.0707  -0.0114   0.0493   0.1112   0.1743   0.2393   0.3057   0.3737   0.4431   0.5139   0.5860   0.6593   0.7325   0.8053   0.8788   0.9526   1.0267   1.1007   1.1744   1.2461   1.3139   1.3807   1.4465   1.5110   1.5741   1.6359   1.6962   1.7507   1.8024   1.8530   1.9025   1.9511   1.9988   2.0459   2.0923   2.1385   2.1843   2.2302   2.2761   2.3223   2.3687   2.4156   2.4629   2.5107   2.5591   2.6079   2.6572   2.7070   2.7572   2.8078   2.8587   2.9098   2.9610   3.0123   3.0637   3.1150   3.1662   3.2173   3.2683   3.3190
3.750  -0.7639  -0.7926  -0.8232  -0.8554  -0.8892  -0.9243  -0.9607  -0.9982  -1.0368  -1.0762  -1.1163  -1.1571  -1.1985  -1.2404  -1.2826  -1.3252  -1.3680  -1.4109  -1.4540  -1.4971  -1.5402  -1.5831  -1.6258  -1.6681  -1.7103  -1.7522  -1.7936  -1.8344  -1.8746  -1.9139  -1.9522  -1.9893  -2.0251  -2.0593  -2.0918  -2.1222  -2.1502  -2.1755  -2.1979  -2.2168  -2.2321  -2.2435  -2.2508  -2.2539  -2.2528  -2.2473  -2.2376  -2.2237  -2.2058  -2.1841  -2.1589  -2.1304  -2.0989  -2.0650  -2.0289  -1.9907  -1.9506  -1.9088  -1.8654  -1.8206  -1.7745  -1.7271  -1.6785  -1.6287  -1.5779  -1.5258  -1.4726  -1.4181  -1.3625  -1.3055  -1.2471  -1.1872  -1.1259  -1.0630  -0.9984  -0.9320  -0.8639  -0.7940  -0.7223  -0.6487  -0.5735  -0.4967  -0.4186  -0.3394  -0.2592  -0.1785  -0.0976  -0.0165   0.0645   0.1453   0.2256   0.3053   0.3828   0.4591   0.5344   0.6086   0.6816   0.7532   0.8234   0.8892   0.9532   1.0156   1.0763   1.1353   1.1925   1.2481   1.3013   1.3494   1.3962   1.4418   1.4862   1.5297   1.5724   1.6145   1.6561   1.6974   1.7385   1.7796   1.8207   1.8619   1.9033   1.9449   1.9867   2.0288   2.0711   2.1137   2.1565   2.1995   2.2427   2.2861   2.3297   2.3734   2.4173   2.4615   2.5058   2.5504   2.5953   2.6405   2.6859   2.7318   2.7780
3.700  -1.3108  -1.3552  -1.4000  -1.4451  -1.4904  -1.5360  -1.5817  -1.6276  -1.6735  -1.7194  -1.7654  -1.8113  -1.8571  -1.9029  -1.9485  -1.9939  -2.0390  -2.0839  -2.1285  -2.1728  -2.2166  -2.2602  -2.3034  -2.3461  -2.3882  -2.4297  -2.4705  -2.5104  -2.5495  -2.5875  -2.6246  -2.6609  -2.6958  -2.7292  -2.7609  -2.7905  -2.8178  -2.8426  -2.8646  -2.8834  -2.8991  -2.9113  -2.9196  -2.9237  -2.9234  -2.9187  -2.9097  -2.8964  -2.8790  -2.8575  -2.8317  -2.8021  -2.7688  -2.7320  -2.6918  -2.6483  -2.6018  -2.5523  -2.5000  -2.4448  -2.3870  -2.3263  -2.2630  -2.1970  -2.1283  -2.0570  -1.9831  -1.9069  -1.8285  -1.7481  -1.6660  -1.5824  -1.4975  -1.4116  -1.3251  -1.2382  -1.1511  -1.0645  -0.9792  -0.8944  -0.8105  -0.7274  -0.6453  -0.5645  -0.4853  -0.4073  -0.3304  -0.2547  -0.1802  -0.1070  -0.0358   0.0339   0.1023   0.1694   0.2352   0.2996   0.3627   0.4240   0.4825   0.5396   0.5953   0.6495   0.7022   0.7536   0.8036   0.8519   0.8960   0.9391   0.9814   1.0229   1.0639   1.1046   1.1451   1.1855   1.2260   1.2665   1.3071   1.3479   1.3888   1.4298   1.4709   1.5119   1.5528   1.5935   1.6341   1.6743   1.7142   1.7537   1.7927   1.8311   1.8691   1.9064   1.9433   1.9797   2.0157   2.0514   2.0869   2.1222   2.1576   2.1932   2.2291
3.650  -2.0528  -2.0988  -2.1446  -2.1902  -2.2354  -2.2804  -2.3250  -2.3692  -2.4131  -2.4565  -2.4996  -2.5424  -2.5846  -2.6262  -2.6673  -2.7078  -2.7478  -2.7871  -2.8257  -2.8640  -2.9022  -2.9396  -2.9764  -3.0124  -3.0475  -3.0818  -3.1152  -3.1476  -3.1790  -3.2105  -3.2407  -3.2697  -3.2971  -3.3230  -3.3471  -3.3692  -3.3892  -3.4068  -3.4223  -3.4347  -3.4437  -3.4491  -3.4509  -3.4486  -3.4419  -3.4307  -3.4148  -3.3939  -3.3677  -3.3363  -3.2994  -3.2571  -3.2093  -3.1562  -3.0982  -3.0353  -2.9681  -2.8970  -2.8221  -2.7440  -2.6634  -2.5808  -2.4966  -2.4112  -2.3256  -2.2398  -2.1542  -2.0690  -1.9845  -1.9007  -1.8179  -1.7361  -1.6554  -1.5758  -1.4972  -1.4201  -1.3445  -1.2699  -1.1965  -1.1240  -1.0527  -0.9824  -0.9142  -0.8470  -0.7808  -0.7155  -0.6510  -0.5875  -0.5247  -0.4631  -0.4024  -0.3424  -0.2831  -0.2246  -0.1669  -0.1100  -0.0541  -0.0002   0.0523   0.1037   0.1542   0.2037   0.2523   0.3001   0.3472   0.3918   0.4353   0.4782   0.5207   0.5629   0.6049   0.6466   0.6883   0.7286   0.7705   0.8145   0.8611   0.9106   0.9634   1.0200   1.0808   1.1458   1.2147   1.2867   1.3605   1.4354   1.5106   1.5856   1.6603   1.7345   1.8083   1.8816   1.9543   2.0262   2.0974   2.1676   2.2368   2.3048   2.3716   2.4370   2.5010
3.600  -2.8426  -2.8813  -2.9192  -2.9564  -2.9928  -3.0285  -3.0634  -3.0976  -3.1309  -3.1639  -3.1974  -3.2302  -3.2622  -3.2935  -3.3240  -3.3537  -3.3826  -3.4106  -3.4386  -3.4665  -3.4934  -3.5191  -3.5437  -3.5672  -3.5893  -3.6100  -3.6297  -3.6484  -3.6654  -3.6806  -3.6940  -3.7054  -3.7149  -3.7224  -3.7279  -3.7311  -3.7318  -3.7299  -3.7253  -3.7178  -3.7074  -3.6938  -3.6768  -3.6560  -3.6314  -3.6030  -3.5703  -3.5332  -3.4922  -3.4472  -3.3988  -3.3468  -3.2913  -3.2328  -3.1717  -3.1083  -3.0429  -2.9760  -2.9079  -2.8390  -2.7696  -2.7007  -2.6318  -2.5630  -2.4944  -2.4261  -2.3582  -2.2909  -2.2244  -2.1585  -2.0933  -2.0288  -1.9650  -1.9019  -1.8394  -1.7774  -1.7160  -1.6550  -1.5943  -1.5339  -1.4736  -1.4136  -1.3537  -1.2938  -1.2339  -1.1739  -1.1138  -1.0537  -0.9935  -0.9334  -0.8734  -0.8136  -0.7541  -0.6948  -0.6359  -0.5776  -0.5199  -0.4639  -0.4089  -0.3549  -0.3022  -0.2508  -0.2007  -0.1519  -0.1054  -0.0608  -0.0172   0.0254   0.0673   0.1085   0.1492   0.1894   0.2281   0.2679   0.3089   0.3517   0.3965   0.4438   0.4937   0.5466   0.6027   0.6620   0.7245   0.7899   0.8578   0.9277   0.9993   1.0721   1.1457   1.2197   1.2940   1.3681   1.4420   1.5155   1.5883   1.6603   1.7313   1.8013   1.8701   1.9376   2.0036
3.550  -3.5605  -3.5887  -3.6161  -3.6426  -3.6682  -3.6929  -3.7166  -3.7392  -3.7614  -3.7826  -3.8024  -3.8208  -3.8378  -3.8533  -3.8673  -3.8801  -3.8914  -3.9011  -3.9094  -3.9161  -3.9214  -3.9255  -3.9283  -3.9298  -3.9301  -3.9293  -3.9275  -3.9248  -3.9211  -3.9163  -3.9106  -3.9039  -3.8962  -3.8874  -3.8773  -3.8658  -3.8531  -3.8396  -3.8246  -3.8080  -3.7897  -3.7698  -3.7492  -3.7267  -3.7023  -3.6759  -3.6477  -3.6187  -3.5883  -3.5560  -3.3858  -3.3465  -3.3065  -3.2665  -3.2260  -3.1847  -3.1428  -3.1001  -3.0563  -3.0121  -2.9679  -2.9233  -2.8782  -2.8326  -2.7864  -2.7396  -2.6922  -2.6439  -2.5937  -2.5429  -2.4913  -2.4381  -2.3841  -2.3291  -2.2730  -2.2155  -2.1565  -2.0960  -2.0326  -1.9677  -1.9012  -1.8317  -1.7608  -1.6886  -1.6151  -1.5404  -1.4649  -1.3891  -1.3126  -1.2369  -1.1628  -1.0898  -1.0188  -0.9514  -0.8878  -0.8278  -0.7718  -0.7195  -0.6708  -0.6238  -0.5797  -0.5384  -0.4979  -0.4588  -0.4221  -0.3869  -0.3530  -0.3198  -0.2872  -0.2548  -0.2202  -0.1867  -0.1531  -0.1158  -0.0780  -0.0403  -0.0021   0.0366   0.0760   0.1162   0.1589   0.2032   0.2475   0.2920   0.3366   0.3811   0.4255   0.4701   0.5146   0.5595   0.6046   0.6498   0.6944   0.7389   0.7839   0.8289   0.8734   0.9181   0.9625   1.0066   1.0500
3.500  -4.1051  -4.1116  -4.1169  -4.1212  -4.1245  -4.1268  -4.1283  -4.1290  -4.1291  -4.1284  -4.1272  -4.1255  -4.1233  -4.1207  -4.1176  -4.1141  -4.1103  -4.1062  -4.1017  -4.0970  -4.0922  -4.0872  -4.0822  -4.0772  -4.0723  -4.0675  -4.0631  -4.0590  -4.0554  -4.0522  -4.0495  -4.0473  -4.0456  -4.0444  -4.0436  -4.0430  -4.0425  -4.0421  -4.0415  -4.0406  -4.0392  -4.0371  -4.0342  -4.0303  -4.0252  -4.0188  -4.0111  -4.0018  -3.9908  -3.9780  -3.9633  -3.9465  -3.7560  -3.7336  -3.7092  -3.6825  -3.6535  -3.6220  -3.5877  -3.5504  -3.5097  -3.4658  -3.4187  -3.3675  -3.3129  -3.2547  -3.1925  -3.1261  -3.0555  -2.9804  -2.9005  -2.8164  -2.7282  -2.6353  -2.5393  -2.4405  -2.3396  -2.2372  -2.1340  -2.0310  -1.9283  -1.8276  -1.7300  -1.6355  -1.5453  -1.4605  -1.3815  -1.3084  -1.2414  -1.1805  -1.1253  -1.0749  -1.0295  -0.9887  -0.9506  -0.9155  -0.8836  -0.8545  -0.8276  -0.8026  -0.7791  -0.7566  -0.7330  -0.7102  -0.6881  -0.6632  -0.6387  -0.6149  -0.5911  -0.5674  -0.5432  -0.5187  -0.4911  -0.4615  -0.4315  -0.3977  -0.3614  -0.3251  -0.2885  -0.2511  -0.2128  -0.1735  -0.1317  -0.0874  -0.0429   0.0018   0.0468   0.0919   0.1369   0.1824   0.2278   0.2731   0.3187   0.3643   0.4090   0.4536   0.4970   0.5391   0.5816   0.6243   0.6663
3.450  -4.1663  -4.1636  -4.1608  -4.1581  -4.1554  -4.1529  -4.1506  -4.1485  -4.1467  -4.1454  -4.1446  -4.1443  -4.1447  -4.1458  -4.1477  -4.1505  -4.1542  -4.1589  -4.1645  -4.1711  -4.1786  -4.1869  -4.1961  -4.2062  -4.2169  -4.2284  -4.2406  -4.2534  -4.2669  -4.2809  -4.2954  -4.3103  -4.3256  -4.3410  -4.3565  -4.3720  -4.3872  -4.4019  -4.4160  -4.4292  -4.4412  -4.4519  -4.4608  -4.4679  -4.4727  -4.4750  -4.4745  -4.4709  -4.4639  -4.4531  -4.4379  -4.4180  -4.3925  -4.3609  -4.1698  -4.1199  -4.0618  -3.9951  -3.9195  -3.8352  -3.7429  -3.6433  -3.5368  -3.4251  -3.3090  -3.1885  -3.0656  -2.9412  -2.8161  -2.6910  -2.5671  -2.4452  -2.3260  -2.2106  -2.0999  -1.9944  -1.8951  -1.8026  -1.7171  -1.6391  -1.5686  -1.5055  -1.4495  -1.3996  -1.3558  -1.3176  -1.2837  -1.2539  -1.2275  -1.2041  -1.1832  -1.1643  -1.1471  -1.1311  -1.1155  -1.1008  -1.0868  -1.0720  -1.0576  -1.0437  -1.0300  -1.0165  -1.0029  -0.9893  -0.9740  -0.9578  -0.9416  -0.9230  -0.9031  -0.8831  -0.8630  -0.8427  -0.8221  -0.8009  -0.7769  -0.7501  -0.7225  -0.6912  -0.6567  -0.6221  -0.5870  -0.5511  -0.5142  -0.4763  -0.4357  -0.3921  -0.3481  -0.3035  -0.2582  -0.2125  -0.1668  -0.1203  -0.0733  -0.0271   0.0211   0.0697   0.1174   0.1645   0.2094   0.2548   0.3005
3.400  -4.2396  -4.2473  -4.2559  -4.2653  -4.2755  -4.2865  -4.2982  -4.3106  -4.3237  -4.3374  -4.3518  -4.3669  -4.3826  -4.3990  -4.4161  -4.4337  -4.4520  -4.4708  -4.4902  -4.5100  -4.5302  -4.5506  -4.5713  -4.5922  -4.6130  -4.6337  -4.6542  -4.6743  -4.6937  -4.7125  -4.7302  -4.7468  -4.7621  -4.7758  -4.7877  -4.7977  -4.8055  -4.8108  -4.8133  -4.8126  -4.8082  -4.7994  -4.7856  -4.7658  -4.7393  -4.7050  -4.6621  -4.6095  -4.5465  -4.4726  -4.3877  -4.2921  -4.1864  -4.0718  -3.9495  -3.8210  -3.6879  -3.3650  -3.2275  -3.0902  -2.9540  -2.8199  -2.6887  -2.5614  -2.4377  -2.3193  -2.2070  -2.1018  -2.0043  -1.9147  -1.8335  -1.7610  -1.6970  -1.6413  -1.5934  -1.5523  -1.5174  -1.4880  -1.4630  -1.4416  -1.4234  -1.4076  -1.3939  -1.3817  -1.3708  -1.3608  -1.3514  -1.3426  -1.3343  -1.3260  -1.3180  -1.3101  -1.3024  -1.2948  -1.2871  -1.2795  -1.2710  -1.2620  -1.2530  -1.2429  -1.2320  -1.2211  -1.2100  -1.1987  -1.1872  -1.1753  -1.1613  -1.1453  -1.1289  -1.1105  -1.0898  -1.0690  -1.0482  -1.0270  -1.0056  -0.9836  -0.9590  -0.9306  -0.9017  -0.8693  -0.8331  -0.7967  -0.7598  -0.7218  -0.6827  -0.6421  -0.5989  -0.5520  -0.5043  -0.4558  -0.4064  -0.3563  -0.3062  -0.2559  -0.2058  -0.1575  -0.1082  -0.0585  -0.0102   0.0373   0.0831
3.350  -4.5653  -4.5856  -4.6063  -4.6274  -4.6489  -4.6705  -4.6924  -4.7143  -4.7362  -4.7579  -4.7792  -4.8002  -4.8205  -4.8401  -4.8588  -4.8765  -4.8930  -4.9082  -4.9221  -4.9344  -4.9452  -4.9543  -4.9618  -4.9675  -4.9714  -4.9735  -4.9735  -4.9715  -4.9669  -4.9596  -4.9488  -4.9342  -4.9149  -4.8903  -4.8595  -4.8216  -4.7756  -4.7203  -4.6548  -4.5785  -4.4909  -4.3924  -4.2840  -4.1668  -4.0423  -3.9121  -3.7778  -3.6409  -3.5026  -3.3644  -3.2273  -3.0920  -2.9595  -2.8305  -2.7056  -2.5856  -2.4715  -2.3641  -2.2645  -2.0142  -1.9324  -1.8602  -1.7976  -1.7441  -1.6992  -1.6619  -1.6311  -1.6058  -1.5851  -1.5681  -1.5541  -1.5423  -1.5323  -1.5238  -1.5165  -1.5100  -1.5042  -1.4989  -1.4935  -1.4885  -1.4839  -1.4795  -1.4752  -1.4710  -1.4668  -1.4626  -1.4584  -1.4541  -1.4492  -1.4440  -1.4387  -1.4334  -1.4282  -1.4228  -1.4174  -1.4119  -1.4063  -1.4007  -1.3946  -1.3879  -1.3811  -1.3731  -1.3640  -1.3546  -1.3451  -1.3353  -1.3252  -1.3147  -1.3022  -1.2873  -1.2719  -1.2543  -1.2339  -1.2133  -1.1924  -1.1708  -1.1488  -1.1263  -1.1010  -1.0718  -1.0421  -1.0083  -0.9700  -0.9313  -0.8915  -0.8503  -0.8079  -0.7635  -0.7155  -0.6634  -0.6101  -0.5559  -0.5012  -0.4466  -0.3927  -0.3399  -0.2885  -0.2393  -0.1906  -0.1426  -0.0955
3.300  -5.0389  -5.0510  -5.0617  -5.0710  -5.0789  -5.0855  -5.0908  -5.0950  -5.0980  -5.1000  -5.1011  -5.1011  -5.1001  -5.0980  -5.0945  -5.0895  -5.0824  -5.0728  -5.0603  -5.0442  -5.0238  -4.9987  -4.9681  -4.9313  -4.8874  -4.8355  -4.7747  -4.7041  -4.6233  -4.5322  -4.4314  -4.3218  -4.2047  -4.0813  -3.9529  -3.8206  -3.6856  -3.5488  -3.4113  -3.2740  -3.1376  -3.0031  -2.8715  -2.7439  -2.6215  -2.5057  -2.3977  -2.2990  -2.2106  -2.1330  -2.0664  -2.0104  -1.9643  -1.9270  -1.8971  -1.8735  -1.8550  -1.8405  -1.8293  -1.8206  -1.8138  -1.8085  -1.6561  -1.6499  -1.6444  -1.6395  -1.6351  -1.6311  -1.6273  -1.6238  -1.6200  -1.6163  -1.6130  -1.6099  -1.6069  -1.6039  -1.6009  -1.5980  -1.5950  -1.5921  -1.5890  -1.5859  -1.5829  -1.5798  -1.5762  -1.5727  -1.5691  -1.5656  -1.5620  -1.5584  -1.5545  -1.5506  -1.5467  -1.5428  -1.5390  -1.5351  -1.5313  -1.5274  -1.5236  -1.5197  -1.5147  -1.5084  -1.5022  -1.4955  -1.4882  -1.4807  -1.4731  -1.4653  -1.4570  -1.4478  -1.4362  -1.4215  -1.4057  -1.3874  -1.3661  -1.3442  -1.3212  -1.2977  -1.2730  -1.2474  -1.2182  -1.1850  -1.1508  -1.1111  -1.0665  -1.0200  -0.9714  -0.9207  -0.8679  -0.8131  -0.7545  -0.6928  -0.6317  -0.5719  -0.5139  -0.4583  -0.4055  -0.3557  -0.3082  -0.2630  -0.2190
3.250  -5.1652  -5.1585  -5.1501  -5.1394  -5.1261  -5.1097  -5.0898  -5.0660  -5.0376  -5.0043  -4.9652  -4.9198  -4.8673  -4.8067  -4.7374  -4.6587  -4.5705  -4.4730  -4.3667  -4.2526  -4.1317  -4.0050  -3.8734  -3.7380  -3.5997  -3.4597  -3.3190  -3.1787  -3.0400  -2.9043  -2.7729  -2.6473  -2.5292  -2.4199  -2.3210  -2.2336  -2.1580  -2.0945  -2.0422  -2.0001  -1.9669  -1.9410  -1.9210  -1.9057  -1.8940  -1.8852  -1.8785  -1.8735  -1.8696  -1.8667  -1.8646  -1.8629  -1.8617  -1.8608  -1.8601  -1.8596  -1.8593  -1.8590  -1.8589  -1.8587  -1.8587  -1.8586  -1.8586  -1.8586  -1.8586  -1.7174  -1.7140  -1.7107  -1.7075  -1.7044  -1.7013  -1.6983  -1.6953  -1.6925  -1.6899  -1.6872  -1.6844  -1.6817  -1.6791  -1.6765  -1.6741  -1.6717  -1.6695  -1.6674  -1.6656  -1.6637  -1.6618  -1.6600  -1.6584  -1.6570  -1.6558  -1.6547  -1.6537  -1.6528  -1.6521  -1.6510  -1.6492  -1.6474  -1.6456  -1.6438  -1.6419  -1.6398  -1.6373  -1.6341  -1.6308  -1.6259  -1.6188  -1.6114  -1.6036  -1.5952  -1.5860  -1.5756  -1.5627  -1.5467  -1.5295  -1.5094  -1.4856  -1.4602  -1.4331  -1.4039  -1.3725  -1.3384  -1.2999  -1.2554  -1.2081  -1.1547  -1.0958  -1.0351  -0.9726  -0.9093  -0.8462  -0.7839  -0.7217  -0.6604  -0.6027  -0.5489  -0.4988  -0.4517  -0.4066  -0.3630  -0.3198
3.200  -4.7905  -4.7084  -4.6162  -4.5141  -4.4027  -4.2831  -4.1567  -4.0247  -3.8883  -3.7486  -3.6067  -3.4635  -3.3201  -3.1778  -3.0379  -2.9019  -2.7716  -2.6487  -2.5353  -2.4330  -2.3433  -2.2670  -2.2039  -2.1531  -2.1133  -2.0827  -2.0594  -2.0421  -2.0292  -2.0197  -2.0127  -2.0076  -2.0039  -2.0012  -1.9992  -1.9978  -1.9968  -1.9961  -1.9957  -1.9954  -1.9952  -1.9951  -1.9951  -1.9951  -1.9951  -1.9952  -1.9953  -1.9954  -1.9955  -1.9956  -1.9957  -1.9958  -1.9959  -1.9960  -1.9961  -1.9962  -1.9963  -1.9964  -1.9965  -1.9966  -1.9968  -1.9969  -1.9971  -1.9972  -1.9974  -1.9976  -1.9978  -1.8391  -1.8363  -1.8338  -1.8315  -1.8295  -1.8279  -1.8266  -1.8254  -1.8242  -1.8235  -1.8229  -1.8225  -1.8223  -1.8225  -1.8229  -1.8234  -1.8241  -1.8248  -1.8254  -1.8261  -1.8269  -1.8277  -1.8285  -1.8292  -1.8298  -1.8303  -1.8306  -1.8299  -1.8282  -1.8263  -1.8245  -1.8226  -1.8204  -1.8180  -1.8153  -1.8122  -1.8088  -1.8041  -1.7979  -1.7913  -1.7831  -1.7728  -1.7616  -1.7495  -1.7363  -1.7219  -1.7061  -1.6872  -1.6635  -1.6377  -1.6076  -1.5724  -1.5340  -1.4922  -1.4454  -1.3941  -1.3392  -1.2795  -1.2145  -1.1474  -1.0782  -1.0076  -0.9395  -0.8743  -0.8129  -0.7561  -0.7040  -0.6548  -0.6085  -0.5649  -0.5233  -0.4824  -0.4412  -0.3992
3.150  -2.6937  -2.5768  -2.4724  -2.3821  -2.3066  -2.2457  -2.1980  -2.1617  -2.1347  -2.1150  -2.1008  -2.0907  -2.0837  -2.0788  -2.0754  -2.0731  -2.0716  -2.0707  -2.0701  -2.0698  -2.0698  -2.0698  -2.0699  -2.0701  -2.0703  -2.0705  -2.0707  -2.0710  -2.0712  -2.0714  -2.0717  -2.0719  -2.0721  -2.0723  -2.0725  -2.0727  -2.0729  -2.0732  -2.0734  -2.0737  -2.0740  -2.0743  -2.0746  -2.0750  -2.0754  -2.0759  -2.0764  -2.0770  -2.0776  -2.0783  -2.0791  -2.0799  -2.0809  -2.0818  -2.0829  -2.0840  -2.0852  -2.0865  -2.0878  -2.0891  -2.0905  -2.0919  -2.0934  -2.0949  -2.0965  -2.0980  -2.0997  -2.1013  -2.1030  -1.9711  -1.9712  -1.9713  -1.9715  -1.9718  -1.9722  -1.9726  -1.9730  -1.9734  -1.9739  -1.9744  -1.9749  -1.9752  -1.9755  -1.9757  -1.9758  -1.9759  -1.9756  -1.9751  -1.9743  -1.9733  -1.9722  -1.9710  -1.9697  -1.9681  -1.9663  -1.9644  -1.9617  -1.9582  -1.9547  -1.9510  -1.9469  -1.9426  -1.9381  -1.9332  -1.9279  -1.9221  -1.9148  -1.9057  -1.8960  -1.8839  -1.8695  -1.8538  -1.8359  -1.8151  -1.7913  -1.7640  -1.7309  -1.6910  -1.6454  -1.5922  -1.5315  -1.4664  -1.3987  -1.3276  -1.2551  -1.1837  -1.1130  -1.0425  -0.9764  -0.9135  -0.8545  -0.8024  -0.7565  -0.7155  -0.6784  -0.6428  -0.6072  -0.5714  -0.5349  -0.4966  -0.4563
3.100  -2.2305  -2.2311  -2.2317  -2.2323  -2.2329  -2.2334  -2.2340  -2.2345  -2.2349  -2.2354  -2.2358  -2.2362  -2.2366  -2.2370  -2.2373  -2.2377  -2.2380  -2.2384  -2.2388  -2.2392  -2.2396  -2.2401  -2.2406  -2.2412  -2.2419  -2.2426  -2.2434  -2.2443  -2.2453  -2.2464  -2.2476  -2.2489  -2.2503  -2.2518  -2.2534  -2.2551  -2.2568  -2.2586  -2.2605  -2.2623  -2.2641  -2.2659  -2.2676  -2.2693  -2.2708  -2.2723  -2.2737  -2.2750  -2.2761  -2.2772  -2.2781  -2.2789  -2.2797  -2.2803  -2.2809  -2.2815  -2.2820  -2.2825  -2.2830  -2.2836  -2.2841  -2.2848  -2.2854  -2.2861  -2.2868  -2.2876  -2.2883  -2.2891  -2.2899  -2.2907  -2.2915  -2.1662  -2.1647  -2.1632  -2.1616  -2.1598  -2.1580  -2.1562  -2.1542  -2.1522  -2.1504  -2.1490  -2.1475  -2.1462  -2.1448  -2.1435  -2.1422  -2.1410  -2.1391  -2.1366  -2.1343  -2.1320  -2.1292  -2.1263  -2.1235  -2.1206  -2.1177  -2.1146  -2.1108  -2.1061  -2.1013  -2.0959  -2.0897  -2.0830  -2.0757  -2.0673  -2.0576  -2.0462  -2.0314  -2.0125  -1.9904  -1.9627  -1.9284  -1.8889  -1.8436  -1.7927  -1.7366  -1.6754  -1.6083  -1.5346  -1.4596  -1.3823  -1.3029  -1.2264  -1.1529  -1.0844  -1.0212  -0.9658  -0.9151  -0.8676  -0.8263  -0.7892  -0.7550  -0.7236  -0.6938  -0.6644  -0.6340  -0.6011  -0.5658  -0.5287  -0.4892
3.050  -2.3214  -2.3223  -2.3233  -2.3244  -2.3256  -2.3269  -2.3283  -2.3298  -2.3314  -2.3330  -2.3348  -2.3367  -2.3386  -2.3405  -2.3425  -2.3446  -2.3466  -2.3487  -2.3507  -2.3527  -2.3547  -2.3566  -2.3585  -2.3603  -2.3620  -2.3636  -2.3651  -2.3665  -2.3678  -2.3689  -2.3699  -2.3707  -2.3713  -2.3719  -2.3722  -2.3724  -2.3723  -2.3722  -2.3719  -2.3714  -2.3708  -2.3700  -2.3692  -2.3682  -2.3672  -2.3662  -2.3651  -2.3640  -2.3630  -2.3620  -2.3611  -2.3603  -2.3595  -2.3589  -2.3584  -2.3580  -2.3577  -2.3575  -2.3574  -2.3574  -2.3574  -2.3574  -2.3575  -2.3576  -2.3577  -2.3578  -2.3580  -2.3581  -2.3583  -2.3584  -2.3585  -2.3587  -2.3588  -2.2513  -2.2493  -2.2474  -2.2456  -2.2440  -2.2424  -2.2410  -2.2392  -2.2369  -2.2351  -2.2337  -2.2322  -2.2307  -2.2293  -2.2280  -2.2267  -2.2254  -2.2235  -2.2211  -2.2189  -2.2169  -2.2147  -2.2125  -2.2102  -2.2077  -2.2049  -2.2016  -2.1965  -2.1895  -2.1809  -2.1699  -2.1552  -2.1370  -2.1142  -2.0859  -2.0513  -2.0101  -1.9616  -1.9058  -1.8449  -1.7783  -1.7064  -1.6323  -1.5570  -1.4818  -1.4077  -1.3358  -1.2653  -1.1972  -1.1348  -1.0774  -1.0249  -0.9802  -0.9417  -0.9076  -0.8774  -0.8507  -0.8244  -0.7958  -0.7680  -0.7392  -0.7084  -0.6766  -0.6435  -0.6086  -0.5716  -0.5322  -0.4909
3.000  -2.6231  -2.6238  -2.6244  -2.6248  -2.6252  -2.6255  -2.6257  -2.6257  -2.6257  -2.6255  -2.6251  -2.6247  -2.6241  -2.6233  -2.6224  -2.6213  -2.6201  -2.6187  -2.6171  -2.6153  -2.6133  -2.6112  -2.6088  -2.6063  -2.6036  -2.6007  -2.5976  -2.5943  -2.5909  -2.5874  -2.5837  -2.5799  -2.5761  -2.5722  -2.5684  -2.5645  -2.5607  -2.5570  -2.5535  -2.5501  -2.5469  -2.5440  -2.5413  -2.5388  -2.5366  -2.5347  -2.5330  -2.5316  -2.5304  -2.5294  -2.5285  -2.5279  -2.5273  -2.5269  -2.5265  -2.5263  -2.5261  -2.5260  -2.5259  -2.5259  -2.5259  -2.5260  -2.5261  -2.5262  -2.5263  -2.5265  -2.5267  -2.5269  -2.5271  -2.5273  -2.5276  -2.5278  -2.5281  -2.5284  -2.5286  -2.4095  -2.4077  -2.4062  -2.4048  -2.4036  -2.4028  -2.4025  -2.4009  -2.3976  -2.3958  -2.3948  -2.3931  -2.3917  -2.3903  -2.3892  -2.3882  -2.3872  -2.3849  -2.3815  -2.3783  -2.3742  -2.3683  -2.3607  -2.3507  -2.3374  -2.3198  -2.2968  -2.2651  -2.2256  -2.1808  -2.1299  -2.0729  -2.0112  -1.9456  -1.8768  -1.8053  -1.7319  -1.6564  -1.5801  -1.5049  -1.4321  -1.3629  -1.3002  -1.2451  -1.1977  -1.1585  -1.1266  -1.0997  -1.0771  -1.0574  -1.0385  -1.0190  -0.9987  -0.9777  -0.9562  -0.9326  -0.9070  -0.8784  -0.8469  -0.8128  -0.7772  -0.7400  -0.7011  -0.6611  -0.6202  -0.5784
2.950  -2.7105  -2.7090  -2.7073  -2.7054  -2.7034  -2.7012  -2.6987  -2.6961  -2.6933  -2.6902  -2.6869  -2.6835  -2.6798  -2.6759  -2.6718  -2.6675  -2.6630  -2.6584  -2.6536  -2.6487  -2.6437  -2.6387  -2.6336  -2.6285  -2.6235  -2.6186  -2.6139  -2.6093  -2.6050  -2.6009  -2.5971  -2.5936  -2.5905  -2.5878  -2.5853  -2.5833  -2.5815  -2.5801  -2.5789  -2.5780  -2.5772  -2.5767  -2.5763  -2.5760  -2.5759  -2.5758  -2.5759  -2.5760  -2.5761  -2.5763  -2.5765  -2.5767  -2.5769  -2.5772  -2.5775  -2.5778  -2.5781  -2.5784  -2.5787  -2.5790  -2.5794  -2.5798  -2.5801  -2.5805  -2.5810  -2.5814  -2.5819  -2.5825  -2.5830  -2.5836  -2.5843  -2.5849  -2.5856  -2.5863  -2.5870  -2.5878  -2.5885  -2.4684  -2.4673  -2.4664  -2.4657  -2.4650  -2.4643  -2.4638  -2.4626  -2.4608  -2.4595  -2.4573  -2.4537  -2.4493  -2.4438  -2.4365  -2.4265  -2.4128  -2.3938  -2.3683  -2.3363  -2.2968  -2.2495  -2.1951  -2.1338  -2.0666  -1.9948  -1.9200  -1.8412  -1.7606  -1.6806  -1.6008  -1.5211  -1.4448  -1.3727  -1.3059  -1.2458  -1.1931  -1.1482  -1.1110  -1.0817  -1.0576  -1.0388  -1.0248  -1.0136  -1.0037  -0.9933  -0.9817  -0.9670  -0.9495  -0.9300  -0.9064  -0.8776  -0.8466  -0.8133  -0.7781  -0.7407  -0.7019  -0.6606  -0.6174  -0.5747  -0.5331  -0.4927  -0.4535  -0.4161
2.900  -2.9167  -2.9097  -2.9025  -2.8951  -2.8877  -2.8801  -2.8725  -2.8649  -2.8573  -2.8497  -2.8422  -2.8349  -2.8277  -2.8207  -2.8141  -2.8077  -2.8018  -2.7962  -2.7910  -2.7863  -2.7821  -2.7784  -2.7751  -2.7723  -2.7699  -2.7679  -2.7662  -2.7649  -2.7639  -2.7631  -2.7624  -2.7620  -2.7617  -2.7615  -2.7614  -2.7613  -2.7613  -2.7614  -2.7616  -2.7617  -2.7619  -2.7621  -2.7624  -2.7627  -2.7631  -2.7634  -2.7639  -2.7643  -2.7649  -2.7654  -2.7661  -2.7668  -2.7675  -2.7683  -2.7691  -2.7699  -2.7708  -2.7716  -2.7725  -2.7734  -2.7743  -2.7751  -2.7759  -2.7766  -2.7773  -2.7779  -2.7784  -2.7788  -2.7792  -2.7795  -2.7798  -2.7800  -2.7802  -2.7803  -2.7804  -2.7805  -2.7805  -2.7804  -2.7802  -2.6610  -2.6582  -2.6552  -2.6514  -2.6463  -2.6384  -2.6277  -2.6130  -2.5937  -2.5678  -2.5334  -2.4894  -2.4375  -2.3775  -2.3089  -2.2342  -2.1549  -2.0719  -1.9873  -1.9042  -1.8220  -1.7381  -1.6567  -1.5775  -1.5021  -1.4319  -1.3677  -1.3080  -1.2557  -1.2114  -1.1725  -1.1406  -1.1179  -1.1022  -1.0912  -1.0818  -1.0738  -1.0641  -1.0526  -1.0406  -1.0254  -1.0078  -0.9903  -0.9712  -0.9506  -0.9273  -0.9007  -0.8692  -0.8329  -0.7943  -0.7507  -0.7047  -0.6581  -0.6116  -0.5657  -0.5212  -0.4796  -0.4391  -0.4008  -0.3662  -0.3346  -0.3055
2.850  -2.8832  -2.8753  -2.8679  -2.8609  -2.8543  -2.8483  -2.8428  -2.8379  -2.8335  -2.8297  -2.8263  -2.8235  -2.8211  -2.8192  -2.8175  -2.8162  -2.8152  -2.8144  -2.8138  -2.8134  -2.8131  -2.8130  -2.8130  -2.8131  -2.8133  -2.8136  -2.8140  -2.8145  -2.8151  -2.8158  -2.8166  -2.8174  -2.8183  -2.8192  -2.8202  -2.8211  -2.8221  -2.8230  -2.8238  -2.8246  -2.8253  -2.8259  -2.8265  -2.8270  -2.8274  -2.8277  -2.8280  -2.8283  -2.8285  -2.8287  -2.8288  -2.8290  -2.8291  -2.8293  -2.8294  -2.8295  -2.8297  -2.8299  -2.8302  -2.8305  -2.8308  -2.8313  -2.8319  -2.8326  -2.8335  -2.8346  -2.8359  -2.8374  -2.8393  -2.8414  -2.8439  -2.8465  -2.8493  -2.8521  -2.8544  -2.8558  -2.8556  -2.8528  -2.8461  -2.8342  -2.8159  -2.6624  -2.6228  -2.5747  -2.5182  -2.4540  -2.3832  -2.3070  -2.2256  -2.1434  -2.0634  -1.9818  -1.8966  -1.8145  -1.7330  -1.6548  -1.5812  -1.5122  -1.4460  -1.3868  -1.3389  -1.2992  -1.2614  -1.2322  -1.2111  -1.1961  -1.1853  -1.1772  -1.1665  -1.1547  -1.1447  -1.1335  -1.1215  -1.1101  -1.0944  -1.0792  -1.0643  -1.0486  -1.0281  -1.0049  -0.9811  -0.9523  -0.9191  -0.8835  -0.8461  -0.8071  -0.7664  -0.7244  -0.6796  -0.6319  -0.5839  -0.5347  -0.4872  -0.4438  -0.4049  -0.3708  -0.3409  -0.3148  -0.2903  -0.2670  -0.2458
2.800  -2.9880  -2.9873  -2.9869  -2.9868  -2.9869  -2.9872  -2.9877  -2.9884  -2.9891  -2.9898  -2.9906  -2.9914  -2.9921  -2.9927  -2.9933  -2.9938  -2.9943  -2.9947  -2.9950  -2.9953  -2.9955  -2.9957  -2.9958  -2.9960  -2.9961  -2.9961  -2.9962  -2.9963  -2.9964  -2.9964  -2.9965  -2.9966  -2.9967  -2.9968  -2.9969  -2.9971  -2.9972  -2.9975  -2.9978  -2.9982  -2.9987  -2.9992  -3.0000  -3.0009  -3.0020  -3.0034  -3.0051  -3.0071  -3.0095  -3.0123  -3.0156  -3.0194  -3.0238  -3.0286  -3.0339  -3.0396  -3.0457  -3.0520  -3.0586  -3.0651  -3.0715  -3.0776  -3.0831  -3.0876  -3.0908  -3.0923  -3.0913  -3.0872  -3.0792  -3.0666  -3.0486  -3.0247  -2.9943  -2.9571  -2.9131  -2.8626  -2.8060  -2.7441  -2.6783  -2.6096  -2.5391  -2.4677  -2.3958  -2.1815  -2.1077  -2.0353  -1.9639  -1.8938  -1.8257  -1.7606  -1.6989  -1.6434  -1.5941  -1.5510  -1.5134  -1.4844  -1.4632  -1.4473  -1.4344  -1.4249  -1.4120  -1.3980  -1.3867  -1.3780  -1.3660  -1.3543  -1.3421  -1.3297  -1.3167  -1.3034  -1.2877  -1.2695  -1.2521  -1.2278  -1.1979  -1.1678  -1.1362  -1.1039  -1.0694  -1.0324  -0.9909  -0.9453  -0.8977  -0.8455  -0.7910  -0.7385  -0.6878  -0.6389  -0.5924  -0.5489  -0.5073  -0.4663  -0.4288  -0.3939  -0.3624  -0.3359  -0.3132  -0.2931  -0.2745  -0.2570  -0.2387
2.750  -3.0424  -3.0424  -3.0424  -3.0425  -3.0425  -3.0425  -3.0426  -3.0426  -3.0427  -3.0428  -3.0430  -3.0431  -3.0433  -3.0436  -3.0439  -3.0443  -3.0448  -3.0454  -3.0461  -3.0471  -3.0482  -3.0496  -3.0513  -3.0533  -3.0558  -3.0586  -3.0620  -3.0658  -3.0702  -3.0751  -3.0805  -3.0864  -3.0927  -3.0994  -3.1063  -3.1135  -3.1206  -3.1278  -3.1348  -3.1415  -3.1479  -3.1539  -3.1594  -3.1644  -3.1688  -3.1727  -3.1761  -3.1790  -3.1813  -3.1833  -3.1847  -3.1857  -3.1862  -3.1860  -3.1850  -3.1829  -3.1793  -3.1738  -3.1658  -3.1548  -3.1399  -3.1204  -3.0955  -3.0646  -3.0270  -2.9827  -2.9321  -2.8762  -2.8167  -2.7551  -2.6926  -2.6299  -2.5668  -2.5028  -2.4372  -2.3697  -2.3004  -2.2300  -2.1600  -2.0924  -2.0289  -1.9712  -1.9205  -1.8777  -1.8432  -1.7405  -1.7175  -1.7005  -1.6881  -1.6790  -1.6719  -1.6657  -1.6588  -1.6521  -1.6427  -1.6386  -1.6348  -1.6317  -1.6290  -1.6267  -1.6247  -1.6229  -1.6092  -1.5918  -1.5762  -1.5613  -1.5453  -1.5258  -1.5034  -1.4771  -1.4462  -1.4100  -1.3678  -1.3198  -1.2701  -1.2175  -1.1597  -1.1020  -1.0448  -0.9876  -0.9303  -0.8737  -0.8167  -0.7603  -0.7071  -0.6538  -0.6040  -0.5593  -0.5207  -0.4878  -0.4595  -0.4361  -0.4132  -0.3890  -0.3666  -0.3444  -0.3233  -0.3050  -0.2873  -0.2701  -0.2526
2.700  -3.3124  -3.3168  -3.3217  -3.3271  -3.3330  -3.3394  -3.3462  -3.3533  -3.3606  -3.3679  -3.3753  -3.3825  -3.3895  -3.3962  -3.4025  -3.4083  -3.4136  -3.4184  -3.4226  -3.4263  -3.4294  -3.4321  -3.4344  -3.4363  -3.4379  -3.4393  -3.4405  -3.4415  -3.4424  -3.4433  -3.4442  -3.4452  -3.4462  -3.4474  -3.4488  -3.4505  -3.4524  -3.4546  -3.4571  -3.4599  -3.4628  -3.4657  -3.4683  -3.4704  -3.4714  -3.4709  -3.4683  -3.4630  -3.4543  -3.4409  -3.4216  -3.3951  -3.3605  -3.3180  -3.2689  -3.2154  -3.1600  -3.1047  -3.0497  -2.9949  -2.9391  -2.8817  -2.8218  -2.7594  -2.6946  -2.6282  -2.5611  -2.4945  -2.4299  -2.3685  -2.3120  -2.2618  -2.2193  -2.1857  -2.1616  -2.1470  -2.1411  -2.1426  -2.1496  -2.1601  -2.1728  -2.1862  -2.1994  -2.2118  -2.2231  -2.2332  -2.2423  -2.0877  -2.0874  -2.0876  -2.0879  -2.0880  -2.0877  -2.0869  -2.0807  -2.0707  -2.0634  -2.0531  -2.0390  -2.0253  -2.0094  -1.9901  -1.9652  -1.9345  -1.8871  -1.8339  -1.7778  -1.7196  -1.6595  -1.5971  -1.5332  -1.4676  -1.4014  -1.3357  -1.2671  -1.1948  -1.1223  -1.0497  -0.9744  -0.9038  -0.8382  -0.7782  -0.7247  -0.6781  -0.6327  -0.5896  -0.5543  -0.5220  -0.4903  -0.4617  -0.4377  -0.4187  -0.4031  -0.3909  -0.3764  -0.3564  -0.3339  -0.3091  -0.2837  -0.2589  -0.2361
2.650  -3.5817  -3.5823  -3.5829  -3.5834  -3.5840  -3.5847  -3.5854  -3.5863  -3.5874  -3.5887  -3.5902  -3.5921  -3.5944  -3.5972  -3.6005  -3.6044  -3.6091  -3.6145  -3.6207  -3.6277  -3.6355  -3.6442  -3.6536  -3.6636  -3.6741  -3.6850  -3.6960  -3.7068  -3.7170  -3.7262  -3.7338  -3.7391  -3.7415  -3.7400  -3.7337  -3.7210  -3.7006  -3.6710  -3.6318  -3.5835  -3.5280  -3.4680  -3.4063  -3.3448  -3.2847  -3.2258  -3.1679  -3.1101  -3.0517  -2.9918  -2.9298  -2.8656  -2.7995  -2.7321  -2.6645  -2.5978  -2.5334  -2.4725  -2.4168  -2.3680  -2.3281  -2.2989  -2.2820  -2.2775  -2.2850  -2.3027  -2.3285  -2.3595  -2.3930  -2.4265  -2.4585  -2.4883  -2.5158  -2.5410  -2.5640  -2.5851  -2.6043  -2.6219  -2.6378  -2.6522  -2.6648  -2.6757  -2.6846  -2.6914  -2.6958  -2.6976  -2.6967  -2.6926  -2.6853  -2.5413  -2.5281  -2.5120  -2.4925  -2.4693  -2.4419  -2.4100  -2.3702  -2.3225  -2.2699  -2.2119  -2.1471  -2.0789  -2.0073  -1.9339  -1.8599  -1.7841  -1.6955  -1.6164  -1.5409  -1.4655  -1.3939  -1.3213  -1.2492  -1.1780  -1.1090  -1.0439  -0.9770  -0.9101  -0.8526  -0.7997  -0.7529  -0.7142  -0.6823  -0.6572  -0.6379  -0.6219  -0.6049  -0.5865  -0.5708  -0.5512  -0.5264  -0.5035  -0.4842  -0.4678  -0.4530  -0.4401  -0.4247  -0.4024  -0.3760  -0.3453  -0.3142
2.600  -4.3177  -4.3303  -4.3434  -4.3570  -4.3708  -4.3847  -4.3986  -4.4122  -4.4254  -4.4378  -4.4490  -4.4585  -4.4659  -4.4704  -4.4711  -4.4668  -4.4560  -4.4371  -4.4088  -4.3701  -4.3210  -4.2626  -4.1967  -4.1257  -4.0516  -3.9760  -3.8998  -3.8240  -3.7498  -3.6786  -3.6116  -3.5489  -3.4899  -3.4332  -3.3770  -3.3198  -3.2604  -3.1985  -3.1346  -3.0694  -3.0041  -2.9404  -2.8802  -2.8259  -2.7795  -2.7423  -2.7147  -2.6965  -2.6877  -2.6884  -2.6986  -2.7183  -2.7475  -2.7856  -2.8313  -2.8829  -2.9379  -2.9939  -3.0485  -3.1002  -3.1480  -3.1915  -3.2307  -3.2656  -3.2966  -3.3241  -3.3488  -3.3713  -3.3923  -3.4123  -3.4317  -3.4505  -3.4678  -3.4825  -3.4930  -3.4980  -3.4970  -3.4900  -3.4775  -3.4600  -3.4378  -3.4115  -3.3811  -3.3468  -3.3083  -3.2653  -3.2173  -3.1640  -3.1049  -3.0402  -2.9701  -2.8579  -2.7774  -2.6938  -2.6084  -2.5226  -2.4369  -2.3518  -2.2688  -2.1887  -2.1125  -2.0414  -1.9622  -1.8780  -1.7954  -1.7120  -1.6276  -1.5440  -1.4619  -1.3828  -1.3107  -1.2396  -1.1703  -1.1090  -1.0551  -1.0076  -0.9667  -0.9317  -0.8973  -0.8685  -0.8485  -0.8308  -0.8132  -0.7989  -0.7879  -0.7768  -0.7663  -0.7565  -0.7430  -0.7247  -0.7068  -0.6835  -0.6540  -0.6288  -0.6057  -0.5816  -0.5609  -0.5409  -0.5168  -0.4886  -0.4607
2.550  -4.8768  -4.8160  -4.7479  -4.6738  -4.5955  -4.5139  -4.4297  -4.3433  -4.2559  -4.1691  -4.0856  -4.0073  -3.9358  -3.8712  -3.8124  -3.7576  -3.7047  -3.6516  -3.5971  -3.5402  -3.4810  -3.4200  -3.3584  -3.2979  -3.2406  -3.1884  -3.1421  -3.1020  -3.0679  -3.0394  -3.0163  -2.9986  -2.9863  -2.9795  -2.9785  -2.9837  -2.9956  -3.0149  -3.0424  -3.0787  -3.1246  -3.1799  -3.2441  -3.3155  -3.3914  -3.4687  -3.5440  -3.6148  -3.6797  -3.7382  -3.7906  -3.8374  -3.8792  -3.9162  -3.9483  -3.9758  -3.9989  -4.0181  -4.0341  -4.0477  -4.0597  -4.0704  -4.0796  -4.0863  -4.0886  -4.0844  -4.0728  -4.0537  -4.0281  -3.9970  -3.9615  -3.9222  -3.8800  -3.8352  -3.7883  -3.7392  -3.6880  -3.6342  -3.5775  -3.5175  -3.4539  -3.3864  -3.3149  -3.2394  -3.1603  -3.0783  -2.9946  -2.9102  -2.8262  -2.7434  -2.6624  -2.5830  -2.5049  -2.3634  -2.2839  -2.2047  -2.1247  -2.0437  -1.9610  -1.8771  -1.7908  -1.7052  -1.6238  -1.5448  -1.4635  -1.3873  -1.3189  -1.2580  -1.2042  -1.1561  -1.1126  -1.0746  -1.0444  -1.0174  -0.9944  -0.9778  -0.9640  -0.9539  -0.9439  -0.9363  -0.9261  -0.9147  -0.9074  -0.8962  -0.8788  -0.8645  -0.8496  -0.8346  -0.8215  -0.8088  -0.7911  -0.7671  -0.7466  -0.7198  -0.6864  -0.6496  -0.6187  -0.5912  -0.5655  -0.5409  -0.5101
2.500  -4.0931  -4.0335  -3.9743  -3.9177  -3.8657  -3.8193  -3.7784  -3.7426  -3.7111  -3.6835  -3.6590  -3.6372  -3.6177  -3.6000  -3.5840  -3.5695  -3.5565  -3.5451  -3.5358  -3.5292  -3.5259  -3.5270  -3.5335  -3.5465  -3.5672  -3.5969  -3.6366  -3.6874  -3.7499  -3.8235  -3.9067  -3.9967  -4.0892  -4.1796  -4.2639  -4.3392  -4.4043  -4.4594  -4.5057  -4.5449  -4.5785  -4.6077  -4.6331  -4.6546  -4.6722  -4.6859  -4.6960  -4.7034  -4.7090  -4.7138  -4.7184  -4.7231  -4.7271  -4.7287  -4.7255  -4.7156  -4.6986  -4.6749  -4.6456  -4.6115  -4.5733  -4.5317  -4.4873  -4.4406  -4.3921  -4.3421  -4.2904  -4.2366  -4.1805  -4.1216  -4.0595  -3.9940  -3.9247  -3.8514  -3.7744  -3.6937  -3.6100  -3.5240  -3.4367  -3.3490  -3.2620  -3.1762  -3.0920  -3.0094  -2.9281  -2.8476  -2.7672  -2.6862  -2.6043  -2.5210  -2.4366  -2.3514  -2.2661  -2.1816  -2.0985  -1.9839  -1.9041  -1.8268  -1.7534  -1.6844  -1.6200  -1.5603  -1.5032  -1.4504  -1.4039  -1.3629  -1.3258  -1.2963  -1.2739  -1.2576  -1.2470  -1.2416  -1.2309  -1.2266  -1.2300  -1.2278  -1.2191  -1.2092  -1.1988  -1.1900  -1.1825  -1.1762  -1.1667  -1.1536  -1.1432  -1.1255  -1.0961  -1.0706  -1.0496  -1.0309  -1.0147  -1.0003  -0.9795  -0.9509  -0.9132  -0.8647  -0.8109  -0.7686  -0.7317  -0.6973  -0.6642
2.450  -3.9876  -3.9580  -3.9310  -3.9077  -3.8885  -3.8743  -3.8657  -3.8634  -3.8683  -3.8815  -3.9040  -3.9371  -3.9822  -4.0400  -4.1112  -4.1949  -4.2891  -4.3899  -4.4924  -4.5907  -4.6801  -4.7574  -4.8217  -4.8740  -4.9163  -4.9510  -4.9803  -5.0058  -5.0282  -5.0477  -5.0638  -5.0765  -5.0860  -5.0932  -5.0988  -5.1040  -5.1099  -5.1171  -5.1263  -5.1369  -5.1478  -5.1564  -5.1607  -5.1591  -5.1513  -5.1377  -5.1188  -5.0951  -5.0668  -5.0340  -4.9968  -4.9557  -4.9114  -4.8646  -4.8163  -4.7671  -4.7172  -4.6666  -4.6148  -4.5613  -4.5055  -4.4465  -4.3839  -4.3169  -4.2452  -4.1687  -4.0877  -4.0026  -3.9142  -3.8236  -3.7322  -3.6413  -3.5521  -3.4654  -3.3816  -3.3007  -3.2222  -3.1454  -3.0694  -2.9937  -2.9175  -2.8407  -2.7631  -2.6850  -2.6066  -2.5284  -2.4508  -2.3741  -2.2987  -2.2251  -2.1535  -2.0844  -2.0183  -1.9554  -1.8964  -1.8418  -1.7922  -1.7070  -1.6630  -1.6292  -1.6039  -1.5860  -1.5747  -1.5667  -1.5596  -1.5509  -1.5412  -1.5339  -1.5256  -1.5185  -1.5128  -1.5076  -1.5042  -1.5065  -1.4997  -1.4986  -1.5062  -1.5089  -1.4938  -1.4817  -1.4716  -1.4631  -1.4549  -1.4476  -1.4365  -1.4199  -1.4028  -1.3747  -1.3410  -1.3120  -1.2885  -1.2680  -1.2479  -1.2278  -1.1893  -1.1409  -1.0991  -1.0461  -0.9897  -0.9407  -0.8957
2.400  -5.3819  -5.4608  -5.5544  -5.6599  -5.7738  -5.8920  -6.0100  -6.1230  -6.2271  -6.3196  -6.3992  -6.4654  -6.5188  -6.5607  -6.5929  -6.6178  -6.6372  -6.6525  -6.6647  -6.6742  -6.6815  -6.6871  -6.6915  -6.6952  -6.6987  -6.7021  -6.7055  -6.7086  -6.7109  -6.7115  -6.7095  -6.7042  -6.6950  -6.6819  -6.6658  -6.6478  -6.6291  -6.6108  -6.5931  -6.5761  -6.5601  -6.5453  -6.5320  -6.5203  -6.5099  -6.5007  -6.4923  -6.4841  -6.4756  -6.4659  -6.4547  -6.4417  -6.4272  -6.4118  -6.3961  -6.3803  -6.3642  -6.3476  -6.3305  -6.3136  -6.2979  -6.2842  -6.2729  -6.2638  -6.2563  -6.2497  -6.2430  -6.2354  -6.2258  -6.2128  -6.1948  -6.1697  -6.1352  -6.0887  -6.0290  -5.9562  -5.8734  -5.7857  -5.6994  -5.6202  -5.5514  -5.4941  -5.4465  -5.4061  -5.3698  -5.3351  -5.3006  -5.2657  -5.2306  -5.1958  -5.1614  -5.1272  -5.0925  -5.0564  -5.0182  -4.9772  -4.9332  -4.8862  -4.8366  -3.5733  -3.4873  -3.4296  -3.3834  -3.3449  -3.3130  -3.2888  -3.2618  -3.2511  -3.2481  -3.0965  -3.0209  -2.9803  -2.9408  -2.9051  -2.8720  -2.8422  -2.7908  -2.7243  -2.6766  -2.6109  -2.5280  -2.4631  -2.4087  -2.3613  -2.3191  -2.2809  -2.2232  -2.1500  -2.0901  -2.0051  -1.9039  -1.8237  -1.7542  -1.6930  -1.6376  -1.5860  -1.5186  -1.4385  -1.3677  -1.2729  -1.1503
2.350  -7.0227  -7.0303  -7.0361  -7.0405  -7.0441  -7.0473  -7.0505  -7.0541  -7.0582  -7.0630  -7.0681  -7.0733  -7.0779  -7.0813  -7.0832  -7.0832  -7.0811  -7.0766  -7.0691  -7.0584  -7.0444  -7.0277  -7.0094  -6.9910  -6.9734  -6.9569  -6.9414  -6.9266  -6.9125  -6.8993  -6.8874  -6.8769  -6.8677  -6.8597  -6.8526  -6.8459  -6.8391  -6.8314  -6.8226  -6.8123  -6.8003  -6.7871  -6.7729  -6.7580  -6.7423  -6.7257  -6.7083  -6.6908  -6.6742  -6.6597  -6.6477  -6.6384  -6.6313  -6.6256  -6.6205  -6.6155  -6.6094  -6.6014  -6.5901  -6.5739  -6.5504  -6.5171  -6.4714  -6.4119  -6.3390  -6.2561  -6.1689  -6.0840  -6.0075  -5.9430  -5.8914  -5.8514  -5.8203  -5.7949  -5.7724  -5.7506  -5.7280  -5.7045  -5.6804  -5.6569  -5.6350  -5.6153  -5.5980  -5.5827  -5.5686  -5.5547  -5.5402  -5.5242  -5.5059  -5.4848  -5.4604  -5.4322  -5.3999  -5.3636  -5.3231  -5.2789  -5.2313  -5.1808  -5.1282  -5.0741  -5.0192  -3.9315  -3.8386  -3.7763  -3.7262  -3.6844  -3.6489  -3.6207  -3.5918  -3.5804  -3.5751  -3.4279  -3.3461  -3.2931  -3.2483  -3.2075  -3.1693  -3.1343  -3.0816  -3.0126  -2.9632  -2.8973  -2.8161  -2.7512  -2.6955  -2.6459  -2.6007  -2.5590  -2.4990  -2.4246  -2.3619  -2.2757  -2.1739  -2.0911  -2.0163  -1.9495  -1.8876  -1.8287  -1.7552  -1.6690  -1.5914
2.300  -8.3997  -8.4053  -8.4087  -8.4106  -8.4110  -8.4104  -8.4089  -8.4068  -8.4043  -8.4016  -8.3989  -8.3963  -8.3937  -8.3912  -8.3889  -8.3868  -8.3847  -8.3825  -8.3801  -8.3771  -8.3734  -8.3685  -8.3624  -8.3549  -8.3462  -8.3366  -8.3267  -8.3169  -8.3074  -8.2981  -8.2890  -8.2799  -8.2713  -8.2636  -8.2572  -8.2522  -8.2483  -8.2453  -8.2429  -8.2406  -8.2380  -8.2347  -8.2300  -8.2231  -8.2129  -8.1980  -8.1764  -8.1463  -8.1057  -8.0530  -7.9874  -7.9094  -7.8221  -7.7302  -7.6402  -7.5580  -7.4878  -7.4312  -7.3874  -7.3542  -7.3286  -7.3078  -7.2894  -7.2715  -7.2531  -7.2333  -7.2121  -7.1897  -7.1669  -7.1447  -7.1238  -7.1046  -7.0869  -7.0700  -7.0532  -7.0355  -7.0162  -6.9944  -6.9698  -6.9419  -6.9105  -6.8755  -6.8372  -6.7958  -6.7517  -6.7053  -6.6572  -6.6077  -6.5571  -6.5057  -6.4535  -6.4005  -6.3467  -6.2918  -6.2358  -6.1785  -6.1199  -6.0598  -5.9983  -5.9354  -5.8711  -5.8055  -5.7385  -5.4480  -5.3552  -5.2754  -5.2010  -5.1293  -5.0592  -4.9903  -4.9191  -4.8496  -4.7846  -4.7035  -4.6097  -4.5258  -4.4475  -4.3726  -4.2999  -4.2268  -4.1510  -4.0668  -3.9869  -3.8871  -3.7736  -3.6749  -3.5841  -3.4982  -3.4157  -3.3361  -3.2477  -3.1497  -3.0588  -2.9524  -2.8379  -2.7377  -2.6459  -2.5558  -2.4704  -2.3864  -2.2923
2.250  -8.4202  -8.4180  -8.4159  -8.4137  -8.4113  -8.4086  -8.4052  -8.4011  -8.3959  -8.3898  -8.3825  -8.3745  -8.3660  -8.3574  -8.3489  -8.3406  -8.3322  -8.3239  -8.3158  -8.3086  -8.3024  -8.2975  -8.2937  -8.2909  -8.2886  -8.2866  -8.2844  -8.2816  -8.2777  -8.2721  -8.2636  -8.2512  -8.2330  -8.2073  -8.1723  -8.1263  -8.0683  -7.9986  -7.9196  -7.8358  -7.7531  -7.6773  -7.6127  -7.5611  -7.5219  -7.4932  -7.4723  -7.4566  -7.4440  -7.4327  -7.4214  -7.4091  -7.3953  -7.3797  -7.3625  -7.3439  -7.3250  -7.3069  -7.2904  -7.2765  -7.2654  -7.2568  -7.2505  -7.2456  -7.2419  -7.2387  -7.2356  -7.2325  -7.2290  -7.2250  -7.2201  -7.2142  -7.2070  -7.1981  -7.1874  -7.1744  -7.1587  -7.1402  -7.1184  -7.0931  -7.0641  -7.0314  -6.9950  -6.9553  -6.9126  -6.8674  -6.8200  -6.7710  -6.7209  -6.6697  -6.6178  -6.5652  -6.5118  -6.4575  -6.4022  -6.3457  -6.2879  -6.2287  -6.1681  -6.1060  -6.0425  -5.9776  -5.9113  -5.8437  -5.7747  -5.5009  -5.4058  -5.3235  -5.2470  -5.1736  -5.1021  -5.0319  -4.9607  -4.8919  -4.8266  -4.7461  -4.6537  -4.5701  -4.4915  -4.4159  -4.3421  -4.2670  -4.1868  -4.1028  -4.0223  -3.9241  -3.8123  -3.7136  -3.6222  -3.5352  -3.4515  -3.3708  -3.2821  -3.1838  -3.0922  -2.9860  -2.8726  -2.7727  -2.6796  -2.5891  -2.5016
2.200  -8.3566  -8.3495  -8.3425  -8.3359  -8.3300  -8.3251  -8.3213  -8.3184  -8.3161  -8.3142  -8.3123  -8.3102  -8.3074  -8.3034  -8.2974  -8.2885  -8.2754  -8.2564  -8.2299  -8.1943  -8.1482  -8.0914  -8.0251  -7.9525  -7.8787  -7.8094  -7.7489  -7.6999  -7.6624  -7.6351  -7.6158  -7.6022  -7.5924  -7.5847  -7.5779  -7.5710  -7.5633  -7.5542  -7.5433  -7.5303  -7.5154  -7.4988  -7.4810  -7.4630  -7.4458  -7.4306  -7.4179  -7.4080  -7.4006  -7.3955  -7.3919  -7.3895  -7.3879  -7.3869  -7.3861  -7.3856  -7.3852  -7.3848  -7.3844  -7.3839  -7.3834  -7.3828  -7.3821  -7.3812  -7.3800  -7.3786  -7.3768  -7.3745  -7.3717  -7.3682  -7.3638  -7.3584  -7.3517  -7.3435  -7.3335  -7.3213  -7.3066  -7.2891  -7.2685  -7.2444  -7.2166  -7.1852  -7.1500  -7.1114  -7.0697  -7.0252  -6.9785  -6.9300  -6.8802  -6.8294  -6.7778  -6.7255  -6.6725  -6.6187  -6.5639  -6.5079  -6.4507  -6.3921  -6.3321  -6.2705  -6.2075  -6.1431  -6.0772  -6.0099  -5.9413  -5.8713  -5.8000  -5.5401  -5.4438  -5.3597  -5.2816  -5.2070  -5.1346  -5.0636  -4.9924  -4.9238  -4.8575  -4.7773  -4.6866  -4.6033  -4.5244  -4.4480  -4.3716  -4.2958  -4.2153  -4.1312  -4.0497  -3.9482  -3.8384  -3.7393  -3.6472  -3.5590  -3.4742  -3.3926  -3.3038  -3.2051  -3.1127  -3.0069  -2.8949  -2.7955  -2.7007
2.150  -8.2622  -8.2357  -8.2006  -8.1561  -8.1025  -8.0419  -7.9783  -7.9165  -7.8610  -7.8149  -7.7791  -7.7527  -7.7340  -7.7212  -7.7124  -7.7062  -7.7017  -7.6978  -7.6942  -7.6900  -7.6850  -7.6786  -7.6704  -7.6603  -7.6481  -7.6339  -7.6181  -7.6011  -7.5837  -7.5670  -7.5520  -7.5393  -7.5293  -7.5219  -7.5166  -7.5129  -7.5105  -7.5089  -7.5079  -7.5072  -7.5068  -7.5066  -7.5064  -7.5063  -7.5062  -7.5061  -7.5061  -7.5061  -7.5060  -7.5060  -7.5059  -7.5059  -7.5058  -7.5057  -7.5056  -7.5055  -7.5053  -7.5051  -7.5048  -7.5045  -7.5041  -7.5035  -7.5028  -7.5020  -7.5009  -7.4996  -7.4979  -7.4959  -7.4933  -7.4900  -7.4860  -7.4809  -7.4747  -7.4671  -7.4577  -7.4464  -7.4326  -7.4162  -7.3967  -7.3738  -7.3474  -7.3174  -7.2836  -7.2463  -7.2058  -7.1624  -7.1167  -7.0690  -7.0200  -6.9699  -6.9189  -6.8673  -6.8149  -6.7618  -6.7077  -6.6524  -6.5959  -6.5380  -6.4786  -6.4177  -6.3552  -6.2912  -6.2257  -6.1589  -6.0906  -6.0210  -5.9501  -5.8779  -5.8044  -5.5584  -5.4629  -5.3783  -5.2997  -5.2246  -5.1517  -5.0801  -5.0085  -4.9391  -4.8710  -4.7907  -4.7016  -4.6188  -4.5396  -4.4624  -4.3848  -4.3083  -4.2274  -4.1429  -4.0575  -3.9569  -3.8480  -3.7495  -3.6567  -3.5676  -3.4820  -3.3997  -3.3111  -3.2121  -3.1189  -3.0140  -2.9036
2.100  -7.8309  -7.8284  -7.8251  -7.8208  -7.8150  -7.8074  -7.7980  -7.7866  -7.7734  -7.7587  -7.7429  -7.7266  -7.7107  -7.6961  -7.6835  -7.6734  -7.6658  -7.6603  -7.6564  -7.6538  -7.6522  -7.6511  -7.6504  -7.6499  -7.6496  -7.6494  -7.6493  -7.6492  -7.6492  -7.6492  -7.6492  -7.6491  -7.6491  -7.6491  -7.6491  -7.6491  -7.6491  -7.6491  -7.6491  -7.6491  -7.6491  -7.6491  -7.6491  -7.6491  -7.6491  -7.6491  -7.6491  -7.6490  -7.6490  -7.6490  -7.6489  -7.6489  -7.6488  -7.6487  -7.6486  -7.6485  -7.6483  -7.6481  -7.6478  -7.6475  -7.6470  -7.6465  -7.6458  -7.6450  -7.6439  -7.6425  -7.6409  -7.6387  -7.6361  -7.6328  -7.6287  -7.6237  -7.6174  -7.6097  -7.6003  -7.5889  -7.5750  -7.5585  -7.5390  -7.5162  -7.4899  -7.4599  -7.4264  -7.3895  -7.3495  -7.3068  -7.2619  -7.2152  -7.1671  -7.1180  -7.0680  -7.0173  -6.9657  -6.9132  -6.8596  -6.8046  -6.7482  -6.6902  -6.6305  -6.5693  -6.5064  -6.4420  -6.3761  -6.3088  -6.2401  -6.1701  -6.0989  -6.0263  -5.9526  -5.8778  -5.8018  -5.5699  -5.4777  -5.3945  -5.3164  -5.2414  -5.1682  -5.0960  -5.0229  -4.9509  -4.8794  -4.7983  -4.7111  -4.6287  -4.5491  -4.4705  -4.3923  -4.3149  -4.2331  -4.1452  -4.0567  -3.9561  -3.8485  -3.7513  -3.6572  -3.5676  -3.4814  -3.3991  -3.3112  -3.2118  -3.1181
2.050  -7.8164  -7.8147  -7.8137  -7.8130  -7.8126  -7.8123  -7.8121  -7.8120  -7.8119  -7.8119  -7.8118  -7.8118  -7.8118  -7.8118  -7.8118  -7.8118  -7.8118  -7.8118  -7.8118  -7.8118  -7.8118  -7.8118  -7.8118  -7.8118  -7.8118  -7.8118  -7.8118  -7.8118  -7.8118  -7.8118  -7.8118  -7.8118  -7.8118  -7.8118  -7.8118  -7.8118  -7.8118  -7.8118  -7.8118  -7.8118  -7.8118  -7.8118  -7.8118  -7.8118  -7.8118  -7.8117  -7.8117  -7.8117  -7.8117  -7.8116  -7.8116  -7.8115  -7.8115  -7.8114  -7.8112  -7.8111  -7.8109  -7.8107  -7.8104  -7.8100  -7.8096  -7.8090  -7.8083  -7.8073  -7.8062  -7.8048  -7.8029  -7.8007  -7.7979  -7.7944  -7.7900  -7.7847  -7.7781  -7.7699  -7.7600  -7.7480  -7.7337  -7.7166  -7.6965  -7.6732  -7.6466  -7.6165  -7.5833  -7.5469  -7.5079  -7.4665  -7.4232  -7.3783  -7.3321  -7.2847  -7.2362  -7.1865  -7.1356  -7.0831  -7.0290  -6.9731  -6.9154  -6.8559  -6.7947  -6.7317  -6.6671  -6.6010  -6.5336  -6.4648  -6.3947  -6.3233  -6.2508  -6.1771  -6.1023  -6.0265  -5.9497  -5.8721  -5.7939  -5.5881  -5.5018  -5.4211  -5.3441  -5.2689  -5.1948  -5.1211  -5.0442  -4.9672  -4.8908  -4.8084  -4.7226  -4.6405  -4.5600  -4.4803  -4.4013  -4.3229  -4.2385  -4.1438  -4.0536  -3.9545  -3.8508  -3.7554  -3.6608  -3.5712  -3.4856  -3.4046  -3.3174
2.000  -9.5276  -9.5276  -9.5276  -9.5276  -9.5276  -9.5276  -9.5276  -9.5276  -9.5276  -9.5276  -9.5276  -9.5276  -9.5276  -9.5276  -9.5276  -9.5276  -9.5276  -9.5276  -9.5276  -9.5276  -9.5276  -9.5276  -9.5276  -9.5276  -9.5276  -9.5276  -9.5276  -9.5276  -9.5276  -9.5276  -9.5276  -9.5276  -9.5276  -9.5276  -9.5275  -9.5275  -9.5275  -9.5275  -9.5275  -9.5275  -9.5275  -9.5275  -9.5274  -9.5274  -9.5273  -9.5273  -9.5272  -9.5271  -9.5270  -9.5269  -9.5267  -9.5264  -9.5261  -9.5258  -9.5253  -9.5247  -9.5240  -9.5231  -9.5219  -9.5205  -9.5187  -9.5164  -9.5136  -9.5101  -9.5057  -9.5003  -9.4937  -9.4854  -9.4754  -9.4632  -9.4485  -9.4310  -9.4101  -9.3857  -9.3573  -9.3248  -9.2879  -9.2466  -9.2008  -9.1507  -9.0965  -9.0383  -8.9766  -8.9116  -8.8437  -8.7733  -8.7007  -8.6263  -8.5504  -8.4731  -8.3949  -8.3158  -8.2359  -8.1555  -8.0747  -7.9934  -7.9118  -7.8301  -7.7483  -7.6667  -7.5855  -7.5048  -7.4250  -7.3464  -7.2691  -7.1932  -7.1190  -7.0463  -6.9750  -6.9048  -6.8354  -6.7663  -6.6969  -6.6267  -6.5551  -6.3464  -6.2458  -6.1509  -6.0600  -5.9719  -5.8861  -5.8017  -5.7087  -5.6088  -5.5146  -5.4052  -5.2858  -5.1800  -5.0825  -4.9904  -4.9019  -4.8160  -4.4649  -4.3664  -4.2719  -4.1678  -4.0570  -3.9545  -3.8572  -3.7632  -3.6715
#
# AESOPUS computation completed